%OpenBCI Raw EEG Data
%
%Sample Rate = 250.0 Hz
%First Column = SampleIndex
%Other Columns = EEG data in microvolts followed by Accel Data (in G) interleaved with Aux Data
%Last Two Columns = keyOutput & stageOutput in Math test.
%Key: 0/1 means key up/down. Stage: -1 not in test; 0 waiting; 1 testing; 20 answered and wrong; 21 answered and correct.
0, 8803.75, 4964.01, -2431.91, -65085.62, -24186.58, -55011.33, -22783.69, -34803.50, 0.00, 0.43, 0.25, 0, -1
1, 8607.97, 4800.33, -1077.69, -65219.08, -24419.71, -55178.32, -23012.93, -34874.29, 0.00, 0.00, 0.00, 0, -1
2, 8759.76, 4989.42, -1099.15, -64990.85, -24289.57, -54990.65, -22907.43, -34635.30, 0.00, 0.00, 0.00, 0, -1
3, 9015.04, 5221.55, -2661.18, -64788.79, -24006.15, -54763.83, -22639.88, -34493.21, 0.00, 0.00, 0.00, 0, -1
4, 8837.83, 5001.27, -2630.22, -65067.54, -24154.68, -54988.33, -22759.42, -34783.25, 0.00, 0.00, 0.00, 0, -1
5, 8621.07, 4809.63, -1258.43, -65227.64, -24398.00, -55178.95, -23000.99, -34890.60, 0.00, 0.00, 0.00, 0, -1
6, 8716.02, 4944.97, -948.85, -65042.23, -24341.14, -55040.10, -22963.76, -34694.09, 0.00, 0.00, 0.00, 0, -1
7, 8973.08, 5195.57, -2406.59, -64816.84, -24074.77, -54800.71, -22712.52, -34522.71, 0.00, 0.88, 0.50, 0, -1
8, 8888.86, 5068.86, -2785.09, -65011.28, -24115.16, -54948.34, -22723.99, -34760.02, 0.00, 0.00, 0.00, 0, -1
9, 8622.99, 4828.09, -1448.01, -65233.03, -24388.57, -55178.74, -22976.63, -34908.04, 0.00, 0.00, 0.00, 0, -1
10, 8648.05, 4904.20, -819.50, -65105.42, -24390.20, -55095.95, -22988.30, -34741.76, 0.00, 0.00, 0.00, 0, -1
11, 8939.07, 5203.80, -2106.63, -64814.16, -24093.12, -54808.62, -22706.60, -34472.11, 0.00, 0.00, 0.00, 0, -1
12, 8930.84, 5143.05, -2903.94, -64949.96, -24067.89, -54879.66, -22666.26, -34667.60, 0.00, 0.00, 0.00, 0, -1
13, 8661.14, 4878.18, -1704.66, -65197.82, -24350.12, -55134.18, -22938.95, -34891.34, 0.00, 0.00, 0.00, 0, -1
14, 8624.08, 4887.72, -812.82, -65137.83, -24420.26, -55120.38, -23018.74, -34797.95, 0.00, 0.00, 0.00, 0, -1
15, 8901.38, 5183.66, -1835.37, -64833.60, -24142.81, -54825.88, -22764.78, -34511.98, 0.00, 0.00, 0.00, 0, -1
16, 8967.90, 5199.55, -2956.20, -64877.25, -24048.29, -54827.60, -22660.53, -34628.77, 0.00, 0.87, 0.50, 0, -1
17, 8695.97, 4920.16, -1950.06, -65160.63, -24320.24, -55109.50, -22905.87, -34887.38, 0.00, 0.00, 0.00, 0, -1
18, 8610.03, 4875.16, -841.57, -65163.43, -24428.24, -55150.31, -23019.14, -34833.63, 0.00, 0.00, 0.00, 0, -1
19, 8847.89, 5136.12, -1529.64, -64875.64, -24201.95, -54882.11, -22830.12, -34551.68, 0.00, 0.00, 0.00, 0, -1
20, 8979.03, 5225.03, -2905.91, -64850.50, -24036.39, -54806.79, -22648.02, -34581.66, 0.00, 0.00, 0.00, 0, -1
21, 8731.75, 4954.17, -2187.50, -65143.71, -24268.47, -55073.40, -22851.28, -34855.91, 0.00, 0.00, 0.00, 0, -1
22, 8597.33, 4852.97, -934.77, -65203.52, -24438.23, -55166.05, -23025.45, -34865.50, 0.00, 0.00, 0.00, 0, -1
23, 8787.32, 5075.05, -1274.56, -64948.60, -24263.96, -54948.54, -22868.61, -34610.69, 0.00, 0.00, 0.00, 0, -1
24, 8985.67, 5240.99, -2796.43, -64826.83, -24031.90, -54803.70, -22648.37, -34560.85, 0.00, 0.00, 0.00, 0, -1
25, 8788.44, 5006.92, -2450.18, -65103.52, -24218.88, -55036.27, -22810.29, -34839.82, 0.00, 0.00, 0.00, 0, -1
26, 8603.37, 4856.94, -1102.79, -65217.27, -24427.44, -55176.53, -23011.59, -34890.94, 0.00, 0.87, 0.50, 0, -1
27, 8716.44, 5008.29, -1075.95, -65019.90, -24327.44, -55019.22, -22930.59, -34676.29, 0.00, 0.00, 0.00, 0, -1
28, 8951.76, 5224.07, -2602.75, -64829.18, -24074.08, -54816.40, -22685.28, -34551.68, 0.00, 0.00, 0.00, 0, -1
29, 8811.01, 5041.68, -2632.52, -65067.00, -24181.75, -55003.80, -22776.54, -34816.24, 0.00, 0.00, 0.00, 0, -1
30, 8599.01, 4857.32, -1290.50, -65223.93, -24408.39, -55175.08, -22997.53, -34908.84, 0.00, 0.00, 0.00, 0, -1
31, 8664.72, 4964.88, -915.77, -65066.06, -24371.31, -55061.31, -22974.96, -34729.78, 0.00, 0.00, 0.00, 0, -1
32, 8949.88, 5243.88, -2375.63, -64802.71, -24080.40, -54793.98, -22697.41, -34519.61, 0.00, 0.00, 0.00, 0, -1
33, 8842.71, 5086.23, -2810.91, -65020.53, -24157.85, -54966.18, -22757.41, -34785.95, 0.00, 0.00, 0.00, 0, -1
34, 8593.13, 4850.64, -1483.11, -65237.21, -24420.60, -55193.88, -23007.70, -34946.77, 0.00, 0.00, 0.00, 0, -1
35, 8608.39, 4906.16, -811.86, -65129.45, -24435.13, -55123.91, -23033.85, -34802.56, 0.00, 0.00, 0.00, 0, -1
36, 8881.38, 5186.21, -2063.78, -64845.58, -24162.17, -54846.46, -22782.48, -34560.09, 0.00, 0.87, 0.50, 0, -1
37, 8880.93, 5132.52, -2887.04, -64966.37, -24131.03, -54915.73, -22738.32, -34747.39, 0.00, 0.00, 0.00, 0, -1
38, 8641.25, 4893.20, -1728.77, -65197.62, -24385.91, -55153.57, -22974.60, -34938.61, 0.00, 0.00, 0.00, 0, -1
39, 8590.54, 4883.70, -812.37, -65166.51, -24462.22, -55158.25, -23057.59, -34851.93, 0.00, 0.00, 0.00, 0, -1
40, 8857.17, 5169.51, -1799.40, -64861.45, -24196.79, -54867.36, -22818.20, -34576.47, 0.00, 0.00, 0.00, 0, -1
41, 8922.50, 5185.40, -2968.22, -64909.89, -24085.32, -54862.54, -22695.78, -34682.62, 0.00, 0.00, 0.00, 0, -1
42, 8654.57, 4900.69, -2001.58, -65205.02, -24354.71, -55146.80, -22943.15, -34942.68, 0.00, 0.00, 0.00, 0, -1
43, 8560.03, 4844.54, -861.73, -65213.49, -24492.17, -55196.71, -23091.74, -34914.18, 0.00, 0.00, 0.00, 0, -1
44, 8798.99, 5113.25, -1522.42, -64921.55, -24259.62, -54917.70, -22877.59, -34625.64, 0.00, 0.00, 0.00, 0, -1
45, 8942.17, 5213.39, -2920.48, -64875.18, -24074.08, -54833.50, -22682.13, -34633.22, 0.00, 0.87, 0.50, 0, -1
46, 8693.04, 4941.52, -2243.15, -65173.37, -24311.19, -55108.38, -22898.42, -34914.18, 0.00, 0.00, 0.00, 0, -1
47, 8563.22, 4848.00, -981.98, -65233.25, -24476.68, -55199.53, -23075.47, -34901.04, 0.00, 0.00, 0.00, 0, -1
48, 8741.70, 5057.44, -1278.56, -64987.36, -24324.35, -54984.89, -22949.14, -34658.59, 0.00, 0.00, 0.00, 0, -1
49, 8935.09, 5218.37, -2795.55, -64861.32, -24105.26, -54831.51, -22718.58, -34610.47, 0.00, 0.00, 0.00, 0, -1
50, 8729.70, 4971.61, -2473.20, -65151.04, -24287.83, -55084.13, -22874.37, -34901.33, 0.00, 0.00, 0.00, 0, -1
51, 8555.22, 4830.93, -1128.36, -65257.79, -24490.83, -55223.16, -23078.78, -34957.34, 0.00, 0.00, 0.00, 0, -1
52, 8688.50, 5002.19, -1076.93, -65040.55, -24383.65, -55045.66, -22999.52, -34733.56, 0.00, 0.00, 0.00, 0, -1
53, 8939.24, 5232.72, -2615.06, -64834.96, -24102.00, -54818.14, -22723.81, -34579.20, 0.00, 0.00, 0.00, 0, -1
54, 8780.52, 5028.49, -2688.87, -65090.76, -24234.90, -55024.56, -22830.29, -34858.35, 0.00, 0.00, 0.00, 0, -1
55, 8542.64, 4816.82, -1320.88, -65274.94, -24500.55, -55230.64, -23094.58, -34988.91, 0.01, 0.86, 0.50, 0, -1
56, 8624.96, 4939.11, -908.24, -65101.55, -24438.19, -55099.73, -23043.96, -34790.87, 0.00, 0.00, 0.00, 0, -1
57, 8901.94, 5208.38, -2344.54, -64848.60, -24152.20, -54839.36, -22772.67, -34581.23, 0.00, 0.00, 0.00, 0, -1
58, 8824.74, 5081.47, -2851.12, -65039.46, -24191.90, -54981.07, -22800.99, -34822.14, 0.00, 0.00, 0.00, 0, -1
59, 8561.52, 4830.97, -1550.07, -65275.07, -24475.63, -55226.55, -23072.83, -35010.05, 0.00, 0.00, 0.00, 0, -1
60, 8565.46, 4875.27, -844.78, -65188.75, -24503.03, -55176.38, -23109.60, -34879.05, 0.00, 0.00, 0.00, 0, -1
61, 8841.05, 5157.98, -2060.32, -64903.52, -24210.80, -54892.69, -22844.78, -34618.20, 0.00, 0.00, 0.00, 0, -1
62, 8840.16, 5104.83, -2931.63, -65025.49, -24175.42, -54965.38, -22789.44, -34794.00, 0.00, 0.00, 0.00, 0, -1
63, 8572.88, 4834.86, -1762.79, -65279.34, -24459.76, -55227.49, -23050.62, -35019.26, 0.00, 0.00, 0.00, 0, -1
64, 8528.96, 4831.62, -799.19, -65237.45, -24537.43, -55216.90, -23135.93, -34933.41, 0.00, 0.00, 0.00, 0, -1
65, 8794.47, 5114.88, -1733.22, -64931.59, -24276.32, -54936.99, -22893.71, -34659.38, 0.01, 0.86, 0.50, 0, -1
66, 8878.11, 5144.57, -2939.79, -64957.83, -24148.29, -54917.70, -22756.67, -34749.00, 0.00, 0.00, 0.00, 0, -1
67, 8612.40, 4866.85, -1998.00, -65249.75, -24421.63, -55193.32, -23017.24, -35009.02, 0.00, 0.00, 0.00, 0, -1
68, 8510.38, 4807.06, -850.75, -65270.06, -24558.17, -55253.15, -23158.48, -34978.82, 0.00, 0.00, 0.00, 0, -1
69, 8737.81, 5061.51, -1448.55, -64980.81, -24338.93, -54996.84, -22944.87, -34702.38, 0.00, 0.00, 0.00, 0, -1
70, 8893.33, 5175.73, -2889.37, -64919.10, -24144.64, -54892.53, -22753.25, -34709.96, 0.00, 0.00, 0.00, 0, -1
71, 8642.28, 4901.13, -2248.56, -65219.39, -24384.30, -55167.46, -22979.89, -35006.41, 0.00, 0.00, 0.00, 0, -1
72, 8500.28, 4792.93, -962.71, -65282.54, -24559.78, -55276.18, -23141.43, -35011.86, 0.00, 0.00, 0.00, 0, -1
73, 8678.04, 5003.91, -1206.86, -65030.90, -24395.59, -55059.88, -23000.97, -34748.63, 0.00, 0.00, 0.00, 0, -1
74, 8889.09, 5185.02, -2751.66, -64887.54, -24157.59, -54892.73, -22773.23, -34690.84, 0.00, 0.00, 0.00, 0, -1
75, 8678.58, 4938.57, -2469.89, -65181.84, -24352.36, -55130.42, -22937.72, -34983.23, 0.01, 0.87, 0.51, 0, -1
76, 8484.90, 4773.30, -1106.93, -65311.50, -24578.07, -55282.55, -23158.33, -35042.37, 0.00, 0.00, 0.00, 0, -1
77, 8619.64, 4943.94, -1001.54, -65087.43, -24454.64, -55099.37, -23059.04, -34798.45, 0.00, 0.00, 0.00, 0, -1
78, 8878.74, 5181.60, -2545.84, -64872.79, -24166.64, -54866.76, -22779.36, -34634.83, 0.00, 0.00, 0.00, 0, -1
79, 8736.98, 4993.00, -2682.01, -65117.38, -24288.57, -55064.50, -22881.73, -34918.25, 0.00, 0.00, 0.00, 0, -1
80, 8512.71, 4795.37, -1336.34, -65290.16, -24540.27, -55250.76, -23130.12, -35033.59, 0.00, 0.00, 0.00, 0, -1
81, 8567.31, 4892.33, -899.75, -65149.61, -24516.53, -55147.23, -23120.55, -34854.10, 0.00, 0.00, 0.00, 0, -1
82, 8854.44, 5173.91, -2331.49, -64883.13, -24221.76, -54875.23, -22840.38, -34633.89, 0.00, 0.00, 0.00, 0, -1
83, 8790.07, 5056.28, -2884.40, -65066.93, -24241.61, -55013.48, -22843.62, -34871.49, 0.00, 0.00, 0.00, 0, -1
84, 8521.20, 4798.43, -1605.82, -65318.41, -24528.27, -55271.28, -23114.09, -35057.97, 0.00, 0.86, 0.51, 0, -1
85, 8520.06, 4836.25, -862.62, -65228.87, -24566.00, -55220.68, -23165.88, -34928.76, 0.00, 0.00, 0.00, 0, -1
86, 8780.61, 5103.93, -2041.79, -64949.72, -24299.59, -54944.79, -22915.66, -34680.79, 0.00, 0.00, 0.00, 0, -1
87, 8813.70, 5085.20, -2975.44, -65042.73, -24233.80, -54982.07, -22841.29, -34834.57, 0.00, 0.00, 0.00, 0, -1
88, 8544.20, 4812.78, -1843.15, -65315.28, -24510.12, -55252.86, -23109.94, -35061.26, 0.00, 0.00, 0.00, 0, -1
89, 8502.51, 4805.98, -872.99, -65273.30, -24578.56, -55246.49, -23183.83, -34968.10, 0.00, 0.00, 0.00, 0, -1
90, 8754.78, 5080.98, -1790.42, -64974.66, -24332.55, -54969.06, -22950.95, -34685.95, 0.00, 0.00, 0.00, 0, -1
91, 8844.50, 5125.12, -3030.47, -64998.40, -24208.86, -54947.00, -22815.99, -34766.68, 0.00, 0.00, 0.00, 0, -1
92, 8578.96, 4841.07, -2113.74, -65298.09, -24474.47, -55233.62, -23058.21, -35043.11, 0.00, 0.00, 0.00, 0, -1
93, 8475.09, 4770.49, -939.31, -65321.88, -24612.27, -55293.65, -23200.75, -35012.80, 0.00, 0.00, 0.00, 0, -1
94, 8703.68, 5027.76, -1528.61, -65031.50, -24400.88, -55030.60, -23013.62, -34723.34, 0.01, 0.86, 0.51, 0, -1
95, 8853.39, 5139.20, -2964.87, -64965.59, -24209.20, -54932.52, -22833.09, -34732.40, 0.00, 0.00, 0.00, 0, -1
96, 8620.98, 4877.11, -2342.19, -65257.52, -24408.80, -55194.75, -23026.34, -35019.57, 0.00, 0.00, 0.00, 0, -1
97, 8472.23, 4760.47, -1053.35, -65339.00, -24591.66, -55304.61, -23203.57, -35036.38, 0.00, 0.00, 0.00, 0, -1
98, 8638.46, 4961.10, -1269.44, -65093.87, -24448.94, -55092.64, -23079.31, -34782.26, 0.00, 0.00, 0.00, 0, -1
99, 8862.53, 5157.15, -2832.82, -64937.83, -24201.84, -54907.08, -22837.09, -34686.06, 0.00, 0.00, 0.00, 0, -1
100, 8664.18, 4918.30, -2597.59, -65222.48, -24380.70, -55150.67, -22997.64, -34987.70, 0.00, 0.00, 0.00, 0, -1
101, 8471.87, 4754.57, -1244.72, -65357.32, -24594.16, -55312.03, -23216.53, -35064.12, 0.00, 0.00, 0.00, 0, -1
102, 8568.90, 4887.68, -1099.24, -65171.09, -24521.76, -55171.28, -23161.26, -34866.71, 0.00, 0.00, 0.00, 0, -1
103, 8823.22, 5127.69, -2614.84, -64955.38, -24256.58, -54938.69, -22903.14, -34709.29, 0.00, 0.00, 0.00, 0, -1
104, 8692.46, 4948.59, -2786.48, -65194.54, -24362.93, -55129.21, -22986.78, -34984.52, 0.01, 0.86, 0.51, 0, -1
105, 8454.97, 4726.30, -1413.50, -65390.27, -24619.13, -55340.73, -23240.47, -35125.12, 0.00, 0.00, 0.00, 0, -1
106, 8518.88, 4826.55, -934.44, -65240.83, -24582.40, -55232.41, -23208.84, -34939.51, 0.00, 0.00, 0.00, 0, -1
107, 8810.25, 5114.77, -2348.36, -64955.31, -24280.28, -54953.24, -22912.95, -34693.50, 0.00, 0.00, 0.00, 0, -1
108, 8742.28, 4992.73, -2929.69, -65140.71, -24312.42, -55086.45, -22935.86, -34925.65, 0.00, 0.00, 0.00, 0, -1
109, 8482.62, 4736.98, -1636.71, -65379.50, -24589.24, -55333.69, -23202.94, -35115.35, 0.00, 0.00, 0.00, 0, -1
110, 8485.17, 4782.51, -867.40, -65285.40, -24618.97, -55278.61, -23241.97, -34986.54, 0.00, 0.00, 0.00, 0, -1
111, 8763.54, 5073.44, -2038.77, -64986.58, -24339.19, -54984.35, -22980.81, -34720.89, 0.00, 0.00, 0.00, 0, -1
112, 8807.77, 5066.02, -3022.67, -65060.98, -24259.55, -55009.00, -22886.24, -34859.27, 0.00, 0.00, 0.00, 0, -1
113, 8530.25, 4786.36, -1906.42, -65343.56, -24539.13, -55291.93, -23145.61, -35107.41, 0.00, 0.00, 0.00, 0, -1
114, 8472.70, 4769.04, -896.86, -65316.13, -24628.47, -55301.12, -23248.43, -35033.81, 0.01, 0.86, 0.50, 0, -1
115, 8733.68, 5051.32, -1771.29, -65007.61, -24380.14, -55015.11, -23015.66, -34740.24, 0.00, 0.00, 0.00, 0, -1
116, 8825.32, 5096.53, -3047.59, -65030.30, -24250.46, -54985.36, -22871.71, -34822.81, 0.00, 0.00, 0.00, 0, -1
117, 8539.91, 4794.87, -2147.53, -65347.76, -24528.80, -55285.21, -23130.57, -35120.94, 0.00, 0.00, 0.00, 0, -1
118, 8431.90, 4725.09, -953.73, -65369.48, -24672.46, -55350.83, -23280.84, -35107.53, 0.00, 0.00, 0.00, 0, -1
119, 8650.82, 4971.99, -1487.98, -65086.51, -24461.79, -55094.19, -23088.08, -34817.31, 0.00, 0.00, 0.00, 0, -1
120, 8835.38, 5117.61, -2969.29, -64996.01, -24249.07, -54964.17, -22877.66, -34788.68, 0.00, 0.00, 0.00, 0, -1
121, 8595.27, 4846.01, -2417.07, -65300.82, -24475.56, -55237.28, -23085.64, -35098.27, 0.00, 0.00, 0.00, 0, -1
122, 8421.22, 4704.33, -1099.30, -65402.41, -24672.39, -55372.45, -23288.82, -35143.91, 0.00, 0.00, 0.00, 0, -1
123, 8586.94, 4903.15, -1265.71, -65159.98, -24526.43, -55163.25, -23159.74, -34881.73, 0.00, 0.87, 0.50, 0, -1
124, 8809.38, 5096.73, -2821.89, -64998.00, -24273.05, -54970.56, -22897.24, -34766.75, 0.00, 0.00, 0.00, 0, -1
125, 8617.51, 4865.84, -2640.17, -65268.84, -24435.75, -55208.83, -23032.11, -35060.07, 0.00, 0.00, 0.00, 0, -1
126, 8412.35, 4686.89, -1261.33, -65419.06, -24665.51, -55380.29, -23268.23, -35156.21, 0.00, 0.00, 0.00, 0, -1
127, 8519.37, 4830.86, -1058.96, -65228.07, -24580.77, -55228.50, -23213.92, -34947.53, 0.00, 0.00, 0.00, 0, -1
128, 8782.54, 5080.35, -2586.57, -64996.81, -24303.63, -54988.66, -22940.87, -34777.05, 0.00, 0.00, 0.00, 0, -1
129, 8672.19, 4919.35, -2818.55, -65213.22, -24386.58, -55165.04, -23003.72, -35043.80, 0.00, 0.00, 0.00, 0, -1
130, 8442.30, 4706.76, -1470.88, -65393.49, -24634.01, -55370.25, -23244.67, -35168.28, 0.00, 0.00, 0.00, 0, -1
131, 8479.11, 4781.51, -940.09, -65266.51, -24631.76, -55276.58, -23243.49, -35009.78, 0.00, 0.00, 0.00, 0, -1
132, 8761.53, 5062.69, -2317.07, -64991.32, -24338.97, -54997.74, -22969.93, -34771.47, 0.00, 0.00, 0.00, 0, -1
133, 8719.59, 4970.54, -2967.06, -65160.12, -24346.21, -55109.81, -22976.72, -34990.22, 0.01, 0.86, 0.49, 0, -1
134, 8461.10, 4723.10, -1700.25, -65404.29, -24619.24, -55367.23, -23245.19, -35195.75, 0.00, 0.00, 0.00, 0, -1
135, 8450.26, 4757.05, -885.51, -65336.14, -24674.07, -55341.18, -23299.19, -35084.93, 0.00, 0.00, 0.00, 0, -1
136, 8729.90, 5043.81, -2016.91, -65020.82, -24392.28, -55034.06, -23030.52, -34790.67, 0.00, 0.00, 0.00, 0, -1
137, 8765.50, 5019.98, -3037.62, -65091.16, -24304.46, -55052.61, -22923.08, -34920.49, 0.00, 0.00, 0.00, 0, -1
138, 8510.11, 4754.64, -1950.88, -65361.80, -24572.30, -55318.09, -23173.64, -35156.34, 0.00, 0.00, 0.00, 0, -1
139, 8440.04, 4721.29, -906.94, -65356.32, -24679.92, -55354.74, -23292.13, -35097.09, 0.00, 0.00, 0.00, 0, -1
140, 8693.22, 4994.52, -1726.34, -65050.59, -24432.89, -55074.74, -23068.61, -34809.87, 0.00, 0.00, 0.00, 0, -1
141, 8820.20, 5071.32, -3053.27, -65033.34, -24272.79, -55010.97, -22900.79, -34862.71, 0.00, 0.00, 0.00, 0, -1
142, 8561.72, 4792.84, -2225.25, -65324.98, -24523.66, -55289.41, -23136.63, -35142.04, 0.00, 0.00, 0.00, 0, -1
143, 8421.67, 4692.19, -1006.81, -65389.16, -24695.66, -55387.42, -23319.53, -35156.86, 0.01, 0.87, 0.49, 0, -1
144, 8612.78, 4914.75, -1459.01, -65127.71, -24516.26, -55156.86, -23152.79, -34889.71, 0.00, 0.00, 0.00, 0, -1
145, 8819.86, 5066.27, -2952.58, -65026.23, -24292.37, -55020.85, -22923.43, -34852.94, 0.00, 0.00, 0.00, 0, -1
146, 8622.30, 4813.83, -2449.33, -65308.42, -24495.05, -55272.66, -23107.03, -35135.62, 0.00, 0.00, 0.00, 0, -1
147, 8472.56, 4692.52, -1134.19, -65393.91, -24681.73, -55387.20, -23297.67, -35158.58, 0.00, 0.00, 0.00, 0, -1
148, 8619.55, 4875.43, -1227.22, -65167.16, -24562.78, -55197.50, -23205.02, -34930.23, 0.00, 0.00, 0.00, 0, -1
149, 8867.52, 5095.12, -2797.07, -64978.96, -24293.26, -54984.11, -22937.52, -34815.63, 0.00, 0.00, 0.00, 0, -1
150, 8672.66, 4857.23, -2661.80, -65271.83, -24458.66, -55233.59, -23084.03, -35120.02, 0.00, 0.00, 0.00, 0, -1
151, 8456.36, 4670.37, -1273.58, -65424.92, -24693.87, -55413.46, -23315.53, -35205.65, 0.00, 0.00, 0.00, 0, -1
152, 8560.67, 4812.80, -1022.88, -65236.98, -24617.25, -55262.72, -23248.07, -34985.04, 0.00, 0.00, 0.00, 0, -1
153, 8834.30, 5074.36, -2535.58, -64997.89, -24332.04, -55008.49, -22977.82, -34798.63, 0.01, 0.87, 0.49, 0, -1
154, 8726.37, 4917.25, -2849.65, -65217.79, -24405.89, -55177.18, -23035.51, -35056.74, 0.00, 0.00, 0.00, 0, -1
155, 8484.74, 4693.53, -1510.49, -65419.80, -24671.34, -55393.25, -23295.08, -35204.18, 0.00, 0.00, 0.00, 0, -1
156, 8516.55, 4766.08, -945.70, -65297.58, -24671.38, -55317.55, -23307.28, -35050.26, 0.00, 0.00, 0.00, 0, -1
157, 8798.03, 5049.88, -2288.53, -65015.86, -24382.91, -55039.96, -23030.88, -34812.13, 0.00, 0.00, 0.00, 0, -1
158, 8756.99, 4957.28, -2986.13, -65176.50, -24377.13, -55141.46, -23009.42, -35021.29, 0.00, 0.00, 0.00, 0, -1
159, 8506.00, 4714.74, -1738.05, -65414.66, -24643.91, -55382.23, -23271.38, -35223.82, 0.00, 0.00, 0.00, 0, -1
160, 8513.67, 4765.82, -916.24, -65320.98, -24671.16, -55331.65, -23310.79, -35097.20, 0.00, 0.00, 0.00, 0, -1
161, 8781.67, 5048.28, -2023.19, -65023.75, -24399.54, -55044.39, -23050.84, -34814.11, 0.00, 0.00, 0.00, 0, -1
162, 8808.91, 5020.74, -3074.75, -65116.13, -24331.06, -55080.08, -22966.46, -34957.16, 0.00, 0.87, 0.50, 0, -1
163, 8538.77, 4743.73, -2019.28, -65394.25, -24610.48, -55353.51, -23232.11, -35209.23, 0.00, 0.00, 0.00, 0, -1
164, 8447.44, 4693.37, -949.30, -65398.54, -24727.18, -55397.10, -23360.14, -35160.28, 0.00, 0.00, 0.00, 0, -1
165, 8681.71, 4949.03, -1702.69, -65110.56, -24487.56, -55128.52, -23145.59, -34886.13, 0.00, 0.00, 0.00, 0, -1
166, 8809.78, 5033.97, -3043.12, -65081.50, -24316.62, -55056.68, -22972.88, -34928.89, 0.00, 0.00, 0.00, 0, -1
167, 8558.37, 4764.52, -2257.10, -65364.41, -24570.40, -55323.83, -23203.50, -35198.97, 0.00, 0.00, 0.00, 0, -1
168, 8421.51, 4662.55, -1013.38, -65429.19, -24741.86, -55424.90, -23382.52, -35205.83, 0.00, 0.00, 0.00, 0, -1
169, 8632.31, 4906.45, -1435.12, -65152.56, -24545.88, -55177.38, -23205.63, -34931.21, 0.00, 0.00, 0.00, 0, -1
170, 8821.21, 5057.77, -2953.87, -65040.85, -24322.74, -55029.73, -22983.05, -34889.17, 0.00, 0.00, 0.00, 0, -1
171, 8590.18, 4790.74, -2491.37, -65346.02, -24531.80, -55301.25, -23172.63, -35196.82, 0.00, 0.00, 0.00, 0, -1
172, 8405.89, 4636.20, -1140.79, -65464.46, -24744.97, -55450.56, -23376.50, -35243.85, 0.01, 0.87, 0.50, 0, -1
173, 8576.59, 4843.98, -1202.10, -65213.40, -24597.11, -55232.32, -23258.11, -34977.82, 0.00, 0.00, 0.00, 0, -1
174, 8817.56, 5062.07, -2790.26, -65024.80, -24330.05, -55023.29, -22997.24, -34856.47, 0.00, 0.00, 0.00, 0, -1
175, 8621.83, 4824.49, -2702.59, -65314.07, -24502.70, -55269.96, -23147.49, -35164.64, 0.00, 0.00, 0.00, 0, -1
176, 8422.99, 4652.02, -1336.05, -65458.80, -24729.81, -55435.88, -23380.86, -35255.94, 0.00, 0.00, 0.00, 0, -1
177, 8501.04, 4766.15, -1031.78, -65296.66, -24664.28, -55304.83, -23312.47, -35059.58, 0.00, 0.00, 0.00, 0, -1
178, 8770.24, 5027.64, -2517.86, -65050.32, -24368.01, -55039.52, -23018.03, -34847.53, 0.00, 0.00, 0.00, 0, -1
179, 8674.33, 4881.55, -2870.21, -65249.50, -24441.59, -55202.62, -23073.35, -35099.46, 0.00, 0.00, 0.00, 0, -1
180, 8435.86, 4661.10, -1549.36, -65455.90, -24701.98, -55424.64, -23326.64, -35250.44, 0.00, 0.00, 0.00, 0, -1
181, 8457.97, 4724.20, -937.92, -65346.98, -24707.08, -55361.49, -23355.76, -35112.67, 0.00, 0.00, 0.00, 0, -1
182, 8730.55, 4997.16, -2249.08, -65071.49, -24426.43, -55082.50, -23096.21, -34878.27, 0.00, 0.86, 0.50, 0, -1
183, 8706.45, 4919.53, -3005.55, -65215.84, -24410.63, -55166.14, -23067.16, -35071.99, 0.00, 0.00, 0.00, 0, -1
184, 8451.35, 4668.70, -1784.99, -65459.96, -24681.73, -55417.04, -23321.85, -35270.63, 0.00, 0.00, 0.00, 0, -1
185, 8432.82, 4692.70, -915.80, -65392.29, -24733.41, -55396.36, -23381.73, -35167.25, 0.00, 0.00, 0.00, 0, -1
186, 8694.36, 4968.97, -1956.65, -65093.93, -24473.17, -55123.69, -23141.41, -34903.86, 0.00, 0.00, 0.00, 0, -1
187, 8747.98, 4970.80, -3068.80, -65156.83, -24382.47, -55133.53, -23036.73, -35008.17, 0.00, 0.00, 0.00, 0, -1
188, 8461.32, 4673.73, -2034.77, -65465.48, -24671.21, -55427.12, -23317.14, -35292.15, 0.00, 0.00, 0.00, 0, -1
189, 8395.58, 4648.94, -944.92, -65438.95, -24764.59, -55446.23, -23421.41, -35235.20, 0.00, 0.00, 0.00, 0, -1
190, 8645.90, 4921.09, -1675.73, -65136.73, -24526.70, -55166.03, -23193.00, -34939.51, 0.00, 0.00, 0.00, 0, -1
191, 8761.01, 4990.83, -3040.69, -65118.61, -24375.40, -55095.42, -23032.89, -34989.29, 0.00, 0.86, 0.51, 0, -1
192, 8510.72, 4720.78, -2296.66, -65419.35, -24617.58, -55376.13, -23260.95, -35279.46, 0.00, 0.00, 0.00, 0, -1
193, 8396.25, 4639.57, -1057.19, -65458.80, -24768.48, -55454.48, -23427.55, -35260.59, 0.00, 0.00, 0.00, 0, -1
194, 8592.70, 4868.32, -1432.66, -65190.56, -24587.37, -55218.29, -23259.27, -34982.42, 0.00, 0.00, 0.00, 0, -1
195, 8793.62, 5033.79, -2963.26, -65078.24, -24358.01, -55064.41, -23015.37, -34924.44, 0.00, 0.00, 0.00, 0, -1
196, 8577.50, 4783.14, -2564.44, -65372.23, -24571.38, -55331.52, -23213.78, -35230.46, 0.00, 0.00, 0.00, 0, -1
197, 8382.66, 4621.54, -1219.82, -65487.84, -24786.45, -55486.55, -23423.85, -35303.15, 0.00, 0.00, 0.00, 0, -1
198, 8495.92, 4774.82, -1206.97, -65275.85, -24668.28, -55296.70, -23314.41, -35054.51, 0.00, 0.00, 0.00, 0, -1
199, 8744.85, 5004.58, -2768.00, -65071.02, -24386.42, -55074.23, -23050.15, -34909.11, 0.00, 0.00, 0.00, 0, -1
200, 8574.93, 4801.36, -2757.20, -65333.01, -24528.36, -55297.61, -23168.50, -35200.40, 0.00, 0.00, 0.00, 0, -1
201, 8350.61, 4612.24, -1381.63, -65502.52, -24773.06, -55488.41, -23399.35, -35305.85, 0.00, 0.86, 0.50, 0, -1
202, 8434.68, 4737.99, -1041.86, -65320.94, -24712.27, -55354.81, -23357.30, -35107.79, 0.00, 0.00, 0.00, 0, -1
203, 8694.22, 4988.55, -2504.78, -65090.94, -24442.57, -55117.32, -23100.91, -34927.46, 0.00, 0.00, 0.00, 0, -1
204, 8621.29, 4862.20, -2927.79, -65290.00, -24489.24, -55260.26, -23134.41, -35167.68, 0.00, 0.00, 0.00, 0, -1
205, 8382.49, 4633.58, -1616.19, -65494.01, -24749.50, -55482.93, -23393.42, -35329.17, 0.00, 0.00, 0.00, 0, -1
206, 8395.45, 4688.70, -964.23, -65381.69, -24766.94, -55416.50, -23426.17, -35195.26, 0.00, 0.00, 0.00, 0, -1
207, 8672.68, 4974.72, -2233.27, -65097.29, -24483.14, -55133.59, -23162.64, -34951.33, 0.00, 0.00, 0.00, 0, -1
208, 8671.67, 4922.70, -3051.95, -65217.38, -24452.12, -55198.55, -23096.41, -35103.32, 0.00, 0.00, 0.00, 0, -1
209, 8405.89, 4660.18, -1859.62, -65477.22, -24731.62, -55460.24, -23361.06, -35317.81, 0.00, 0.00, 0.00, 0, -1
210, 8384.38, 4680.41, -963.02, -65406.50, -24787.35, -55437.31, -23446.42, -35225.14, 0.00, 0.00, 0.00, 0, -1
211, 8620.69, 4931.64, -1952.40, -65141.16, -24544.88, -55191.20, -23216.11, -34975.81, 0.01, 0.86, 0.50, 0, -1
212, 8681.93, 4939.53, -3087.13, -65195.92, -24438.90, -55190.79, -23083.70, -35083.66, 0.00, 0.00, 0.00, 0, -1
213, 8421.22, 4665.39, -2102.34, -65467.05, -24703.59, -55443.48, -23333.46, -35331.94, 0.00, 0.00, 0.00, 0, -1
214, 8324.84, 4611.41, -967.65, -65481.60, -24837.59, -55492.07, -23479.61, -35298.75, 0.00, 0.00, 0.00, 0, -1
215, 8544.09, 4857.73, -1630.27, -65211.66, -24628.22, -55241.42, -23287.34, -35027.77, 0.00, 0.00, 0.00, 0, -1
216, 8699.81, 4970.92, -3019.18, -65151.33, -24434.28, -55143.34, -23085.53, -35044.45, 0.00, 0.00, 0.00, 0, -1
217, 8463.73, 4714.27, -2330.30, -65430.89, -24659.54, -55402.29, -23299.59, -35319.46, 0.00, 0.00, 0.00, 0, -1
218, 8316.79, 4606.16, -1068.28, -65501.45, -24836.72, -55515.61, -23485.47, -35343.18, 0.00, 0.00, 0.00, 0, -1
219, 8507.03, 4822.37, -1377.18, -65242.57, -24664.54, -55294.77, -23334.08, -35077.20, 0.00, 0.00, 0.00, 0, -1
220, 8706.81, 4986.90, -2907.72, -65121.49, -24439.44, -55132.95, -23107.03, -35010.59, 0.00, 0.00, 0.00, 0, -1
221, 8502.96, 4750.73, -2570.58, -65401.00, -24621.07, -55371.35, -23269.46, -35289.74, 0.01, 0.86, 0.50, 0, -1
222, 8323.59, 4605.26, -1229.61, -65507.51, -24817.68, -55508.07, -23461.55, -35341.79, 0.00, 0.00, 0.00, 0, -1
223, 8442.43, 4760.54, -1176.98, -65312.87, -24725.25, -55347.12, -23383.37, -35139.00, 0.00, 0.00, 0.00, 0, -1
224, 8694.22, 4992.98, -2728.75, -65111.21, -24456.27, -55124.65, -23129.45, -34998.05, 0.00, 0.00, 0.00, 0, -1
225, 8535.37, 4801.51, -2793.39, -65363.90, -24585.22, -55333.64, -23238.93, -35279.57, 0.00, 0.00, 0.00, 0, -1
226, 8317.11, 4623.88, -1424.83, -65535.63, -24832.27, -55526.63, -23482.65, -35395.06, 0.00, 0.00, 0.00, 0, -1
227, 8400.48, 4754.31, -1073.02, -65358.87, -24772.13, -55395.54, -23426.62, -35190.63, 0.00, 0.00, 0.00, 0, -1
228, 8674.85, 5022.39, -2513.48, -65098.61, -24477.42, -55138.15, -23135.89, -34981.24, 0.00, 0.00, 0.00, 0, -1
229, 8612.93, 4910.48, -3021.20, -65279.18, -24513.78, -55262.85, -23157.32, -35200.49, 0.00, 0.00, 0.00, 0, -1
230, 8341.36, 4648.63, -1699.65, -65524.89, -24813.54, -55516.97, -23440.68, -35396.58, 0.00, 0.86, 0.50, 0, -1
231, 8345.22, 4694.74, -985.42, -65432.96, -24836.41, -55470.05, -23483.52, -35270.79, 0.00, 0.00, 0.00, 0, -1
232, 8623.28, 4979.61, -2220.51, -65147.53, -24548.47, -55190.28, -23229.94, -35025.54, 0.00, 0.00, 0.00, 0, -1
233, 8621.60, 4929.32, -3073.63, -65260.36, -24517.74, -55247.90, -23176.93, -35191.23, 0.00, 0.00, 0.00, 0, -1
234, 8343.55, 4652.60, -1901.06, -65532.79, -24805.12, -55520.86, -23443.56, -35421.34, 0.00, 0.00, 0.00, 0, -1
235, 8293.19, 4638.61, -934.46, -65501.14, -24882.83, -55527.45, -23530.62, -35343.63, 0.00, 0.00, 0.00, 0, -1
236, 8551.73, 4915.95, -1874.13, -65204.28, -24623.04, -55247.68, -23280.32, -35057.61, 0.00, 0.00, 0.00, 0, -1
237, 8632.09, 4945.70, -3061.50, -65228.51, -24509.29, -55228.57, -23155.02, -35143.91, 0.00, 0.00, 0.00, 0, -1
238, 8370.97, 4675.07, -2112.26, -65517.86, -24776.26, -55494.93, -23412.54, -35405.14, 0.00, 0.00, 0.00, 0, -1
239, 8270.79, 4619.41, -965.86, -65531.04, -24903.71, -55554.57, -23547.14, -35379.77, 0.00, 0.00, 0.00, 0, -1
240, 8510.23, 4888.51, -1602.60, -65231.15, -24674.25, -55281.88, -23333.83, -35098.65, 0.01, 0.86, 0.51, 0, -1
241, 8662.93, 5002.12, -3025.02, -65176.28, -24494.65, -55177.16, -23144.63, -35100.57, 0.00, 0.00, 0.00, 0, -1
242, 8416.86, 4734.90, -2381.53, -65479.03, -24729.61, -55457.16, -23355.94, -35385.07, 0.00, 0.00, 0.00, 0, -1
243, 8281.25, 4637.41, -1105.20, -65543.23, -24895.17, -55556.24, -23532.29, -35396.13, 0.00, 0.00, 0.00, 0, -1
244, 8454.52, 4843.98, -1360.42, -65299.23, -24734.64, -55346.74, -23397.60, -35147.87, 0.00, 0.00, 0.00, 0, -1
245, 8669.37, 5028.61, -2895.71, -65157.84, -24489.80, -55177.54, -23156.72, -35072.10, 0.00, 0.00, 0.00, 0, -1
246, 8466.97, 4790.78, -2619.40, -65440.12, -24669.78, -55417.13, -23312.96, -35363.16, 0.00, 0.00, 0.00, 0, -1
247, 8272.69, 4629.02, -1263.23, -65563.90, -24889.47, -55568.16, -23534.69, -35429.30, 0.00, 0.00, 0.00, 0, -1
248, 8396.39, 4792.17, -1168.50, -65353.30, -24787.86, -55400.27, -23452.28, -35213.18, 0.00, 0.00, 0.00, 0, -1
249, 8632.60, 5004.76, -2688.94, -65155.91, -24528.63, -55183.68, -23195.77, -35068.79, 0.00, 0.00, 0.00, 0, -1
250, 8495.81, 4825.27, -2808.76, -65388.89, -24637.48, -55367.59, -23285.82, -35327.80, 0.01, 0.86, 0.51, 0, -1
251, 8267.33, 4618.09, -1443.05, -65567.25, -24894.05, -55574.50, -23531.74, -35450.22, 0.00, 0.00, 0.00, 0, -1
252, 8339.93, 4729.09, -1009.27, -65414.66, -24845.68, -55464.42, -23491.55, -35254.46, 0.00, 0.00, 0.00, 0, -1
253, 8621.22, 5005.09, -2432.18, -65150.57, -24554.93, -55187.17, -23219.01, -35040.14, 0.00, 0.00, 0.00, 0, -1
254, 8544.85, 4877.35, -2955.37, -65334.15, -24589.09, -55317.70, -23235.78, -35278.52, 0.00, 0.00, 0.00, 0, -1
255, 8292.52, 4636.76, -1655.82, -65558.58, -24854.71, -55557.05, -23496.80, -35457.09, 0.00, 0.00, 0.00, 0, -1
0, 8294.93, 4680.81, -909.92, -65471.10, -24879.41, -55505.41, -23530.55, -35328.68, 0.00, 0.00, 0.00, 0, -1
1, 8580.19, 4973.73, -2113.83, -65172.43, -24599.57, -55215.42, -23270.09, -35069.24, 0.00, 0.00, 0.00, 0, -1
2, 8599.57, 4940.43, -3044.15, -65266.13, -24542.10, -55261.76, -23196.95, -35229.66, 0.00, 0.00, 0.00, 0, -1
3, 8325.49, 4668.90, -1910.36, -65527.36, -24821.37, -55524.50, -23455.05, -35450.29, 0.00, 0.00, 0.00, 0, -1
4, 8262.41, 4643.22, -924.33, -65512.16, -24923.65, -55545.76, -23578.54, -35382.96, 0.00, 0.86, 0.52, 0, -1
5, 8525.60, 4926.12, -1832.49, -65212.78, -24671.92, -55262.52, -23349.62, -35105.11, 0.00, 0.00, 0.00, 0, -1
6, 8604.62, 4954.91, -3052.11, -65250.51, -24554.71, -55247.21, -23199.79, -35195.01, 0.00, 0.00, 0.00, 0, -1
7, 8361.43, 4692.91, -2148.32, -65523.11, -24787.70, -55506.96, -23411.04, -35435.02, 0.00, 0.00, 0.00, 0, -1
8, 8264.47, 4631.30, -996.31, -65541.98, -24912.78, -55566.32, -23552.12, -35408.65, 0.00, 0.00, 0.00, 0, -1
9, 8470.77, 4863.45, -1549.85, -65271.72, -24721.03, -55331.12, -23384.60, -35155.07, 0.00, 0.00, 0.00, 0, -1
10, 8632.49, 4985.40, -2992.83, -65200.08, -24529.34, -55208.85, -23183.83, -35139.94, 0.00, 0.00, 0.00, 0, -1
11, 8403.61, 4729.11, -2402.72, -65489.85, -24749.62, -55463.68, -23388.80, -35419.09, 0.00, 0.00, 0.00, 0, -1
12, 8246.59, 4606.23, -1102.92, -65573.94, -24936.46, -55586.80, -23581.58, -35452.05, 0.00, 0.00, 0.00, 0, -1
13, 8435.97, 4831.35, -1323.67, -65307.93, -24759.18, -55358.47, -23421.23, -35185.09, 0.00, 0.85, 0.51, 0, -1
14, 8641.99, 5008.65, -2876.92, -65166.26, -24519.24, -55181.96, -23175.00, -35095.88, 0.00, 0.00, 0.00, 0, -1
15, 8451.84, 4779.94, -2649.49, -65441.10, -24699.62, -55424.21, -23334.57, -35387.79, 0.00, 0.00, 0.00, 0, -1
16, 8242.47, 4598.40, -1281.13, -65586.66, -24929.30, -55592.00, -23576.22, -35476.26, 0.00, 0.00, 0.00, 0, -1
17, 8358.14, 4749.88, -1123.42, -65388.73, -24839.47, -55424.48, -23503.75, -35269.33, 0.00, 0.00, 0.00, 0, -1
18, 8614.21, 4985.74, -2657.98, -65178.22, -24563.58, -55201.36, -23223.48, -35105.47, 0.00, 0.00, 0.00, 0, -1
19, 8483.67, 4807.88, -2830.07, -65409.16, -24672.50, -55396.18, -23314.14, -35370.20, 0.00, 0.00, 0.00, 0, -1
20, 8245.63, 4593.71, -1468.67, -65593.70, -24925.59, -55604.37, -23571.41, -35500.74, 0.00, 0.00, 0.00, 0, -1
21, 8303.87, 4692.10, -996.46, -65452.30, -24893.54, -55494.60, -23547.05, -35330.42, 0.00, 0.00, 0.00, 0, -1
22, 8582.22, 4970.78, -2395.75, -65187.00, -24603.26, -55221.66, -23260.50, -35105.34, 0.00, 0.00, 0.00, 0, -1
23, 8523.70, 4860.52, -2982.26, -65350.29, -24625.70, -55347.70, -23273.55, -35322.39, 0.01, 0.85, 0.51, 0, -1
24, 8272.83, 4617.96, -1710.62, -65581.80, -24894.23, -55577.54, -23528.45, -35494.14, 0.00, 0.00, 0.00, 0, -1
25, 8275.29, 4660.54, -945.64, -65495.17, -24927.49, -55525.60, -23568.88, -35361.44, 0.00, 0.00, 0.00, 0, -1
26, 8550.73, 4941.01, -2117.56, -65209.78, -24653.55, -55249.09, -23321.00, -35112.38, 0.00, 0.00, 0.00, 0, -1
27, 8572.72, 4908.96, -3074.37, -65308.49, -24596.69, -55295.31, -23251.49, -35272.37, 0.00, 0.00, 0.00, 0, -1
28, 8290.84, 4622.32, -1948.98, -65589.83, -24880.53, -55577.79, -23521.28, -35519.31, 0.00, 0.00, 0.00, 0, -1
29, 8226.00, 4596.32, -932.09, -65573.35, -24972.15, -55601.88, -23618.98, -35457.33, 0.00, 0.00, 0.00, 0, -1
30, 8490.38, 4876.97, -1808.88, -65270.91, -24716.83, -55318.20, -23385.47, -35175.99, 0.00, 0.00, 0.00, 0, -1
31, 8603.50, 4941.59, -3086.82, -65260.41, -24566.94, -55261.78, -23229.65, -35220.74, 0.00, 0.00, 0.00, 0, -1
32, 8340.98, 4662.42, -2222.70, -65544.41, -24825.77, -55534.56, -23470.58, -35488.24, 0.00, 0.00, 0.00, 0, -1
33, 8225.62, 4586.15, -1037.70, -65579.21, -24971.39, -55597.32, -23627.25, -35468.44, 0.01, 0.86, 0.51, 0, -1
34, 8440.09, 4829.90, -1579.17, -65305.27, -24773.15, -55349.22, -23443.04, -35206.01, 0.00, 0.00, 0.00, 0, -1
35, 8597.31, 4949.37, -3032.17, -65232.27, -24580.57, -55241.86, -23231.55, -35197.36, 0.00, 0.00, 0.00, 0, -1
36, 8351.86, 4675.63, -2467.41, -65531.65, -24810.30, -55520.19, -23458.87, -35495.78, 0.00, 0.00, 0.00, 0, -1
37, 8189.37, 4549.23, -1146.06, -65621.77, -24997.68, -55648.15, -23642.09, -35530.98, 0.00, 0.00, 0.00, 0, -1
38, 8357.27, 4748.90, -1298.52, -65379.83, -24847.74, -55440.30, -23506.48, -35280.08, 0.00, 0.00, 0.00, 0, -1
39, 8584.43, 4945.95, -2852.24, -65212.15, -24593.31, -55244.03, -23266.24, -35180.32, 0.00, 0.00, 0.00, 0, -1
40, 8405.37, 4727.28, -2686.61, -65474.74, -24756.70, -55468.45, -23414.93, -35454.49, 0.00, 0.00, 0.00, 0, -1
41, 8199.76, 4548.33, -1320.59, -65628.01, -24996.27, -55644.93, -23633.50, -35541.80, 0.00, 0.00, 0.00, 0, -1
42, 8315.09, 4699.63, -1129.01, -65427.84, -24902.66, -55475.46, -23558.89, -35322.39, 0.00, 0.00, 0.00, 0, -1
43, 8572.90, 4942.48, -2646.25, -65204.73, -24621.27, -55236.55, -23286.94, -35158.42, 0.01, 0.86, 0.52, 0, -1
44, 8445.36, 4769.17, -2873.72, -65439.40, -24721.65, -55427.54, -23368.08, -35424.12, 0.00, 0.00, 0.00, 0, -1
45, 8209.48, 4556.47, -1516.95, -65637.91, -24981.13, -55651.15, -23620.03, -35568.53, 0.00, 0.00, 0.00, 0, -1
46, 8261.96, 4650.01, -1000.33, -65494.39, -24960.28, -55554.19, -23616.72, -35407.31, 0.00, 0.00, 0.00, 0, -1
47, 8533.11, 4917.34, -2361.15, -65233.21, -24680.26, -55284.54, -23369.42, -35195.84, 0.00, 0.00, 0.00, 0, -1
48, 8492.50, 4825.25, -3003.23, -65395.99, -24682.74, -55394.75, -23354.87, -35402.34, 0.00, 0.00, 0.00, 0, -1
49, 8238.47, 4581.01, -1743.75, -65628.25, -24950.45, -55640.71, -23610.91, -35584.47, 0.00, 0.00, 0.00, 0, -1
50, 8229.11, 4610.70, -955.81, -65552.41, -25003.87, -55611.56, -23677.00, -35480.55, 0.00, 0.00, 0.00, 0, -1
51, 8497.82, 4886.11, -2089.20, -65277.06, -24735.65, -55340.93, -23421.70, -35231.15, 0.00, 0.00, 0.00, 0, -1
52, 8524.17, 4862.80, -3077.72, -65362.51, -24662.27, -55373.88, -23325.32, -35366.07, 0.00, 0.86, 0.51, 0, -1
53, 8250.59, 4592.50, -1984.99, -65619.51, -24928.34, -55622.29, -23572.06, -35587.29, 0.00, 0.00, 0.00, 0, -1
54, 8175.93, 4562.06, -957.24, -65593.56, -25024.19, -55627.32, -23679.28, -35519.25, 0.00, 0.00, 0.00, 0, -1
55, 8423.01, 4832.36, -1776.61, -65295.86, -24785.51, -55352.24, -23454.62, -35236.18, 0.00, 0.00, 0.00, 0, -1
56, 8544.71, 4909.31, -3072.54, -65278.91, -24616.15, -55290.32, -23285.46, -35280.57, 0.00, 0.00, 0.00, 0, -1
57, 8290.51, 4640.15, -2231.80, -65568.21, -24868.77, -55560.22, -23514.48, -35546.80, 0.00, 0.00, 0.00, 0, -1
58, 8168.11, 4556.94, -1026.03, -65596.49, -25033.04, -55638.52, -23671.39, -35524.45, 0.00, 0.00, 0.00, 0, -1
59, 8366.91, 4784.50, -1507.00, -65330.04, -24842.49, -55398.71, -23506.28, -35262.91, 0.00, 0.00, 0.00, 0, -1
60, 8556.54, 4937.90, -3001.50, -65228.67, -24608.02, -55259.99, -23284.28, -35234.71, 0.00, 0.00, 0.00, 0, -1
61, 8322.27, 4675.81, -2494.61, -65530.66, -24834.84, -55542.07, -23498.77, -35540.75, 0.00, 0.00, 0.00, 0, -1
62, 8154.32, 4538.81, -1171.81, -65638.78, -25047.95, -55673.93, -23720.68, -35597.12, 0.01, 0.87, 0.51, 0, -1
63, 8304.16, 4719.57, -1280.20, -65406.10, -24915.18, -55479.44, -23591.57, -35359.99, 0.00, 0.00, 0.00, 0, -1
64, 8543.60, 4935.85, -2831.21, -65233.83, -24646.02, -55284.67, -23330.97, -35245.46, 0.00, 0.00, 0.00, 0, -1
65, 8382.57, 4734.08, -2717.57, -65485.54, -24782.56, -55495.22, -23442.60, -35502.55, 0.00, 0.00, 0.00, 0, -1
66, 8161.14, 4534.95, -1342.40, -65645.10, -25031.99, -55677.43, -23691.66, -35602.10, 0.00, 0.00, 0.00, 0, -1
67, 8255.46, 4666.89, -1094.36, -65475.03, -24961.73, -55551.13, -23644.12, -35418.75, 0.00, 0.00, 0.00, 0, -1
68, 8511.32, 4910.16, -2579.97, -65244.32, -24680.59, -55309.05, -23357.30, -35238.48, 0.00, 0.00, 0.00, 0, -1
69, 8431.99, 4784.15, -2874.23, -65428.85, -24738.73, -55437.38, -23392.46, -35458.31, 0.00, 0.00, 0.00, 0, -1
70, 8179.89, 4549.05, -1542.61, -65645.91, -25016.99, -55663.80, -23656.55, -35608.47, 0.00, 0.00, 0.00, 0, -1
71, 8223.85, 4629.34, -986.54, -65522.13, -25001.90, -55574.62, -23666.09, -35453.60, 0.00, 0.00, 0.00, 0, -1
72, 8501.89, 4905.47, -2331.56, -65249.79, -24710.63, -55304.90, -23399.68, -35224.49, 0.01, 0.86, 0.51, 0, -1
73, 8464.40, 4820.18, -3017.75, -65402.36, -24705.38, -55402.24, -23391.03, -35429.66, 0.00, 0.00, 0.00, 0, -1
74, 8203.07, 4563.76, -1779.24, -65650.29, -24982.74, -55653.05, -23648.35, -35622.76, 0.00, 0.00, 0.00, 0, -1
75, 8175.75, 4577.26, -945.84, -65585.23, -25037.62, -55623.21, -23700.98, -35518.62, 0.00, 0.00, 0.00, 0, -1
76, 8445.11, 4858.22, -2049.72, -65277.46, -24774.56, -55331.61, -23458.40, -35257.98, 0.00, 0.00, 0.00, 0, -1
77, 8499.67, 4863.83, -3119.61, -65332.20, -24682.45, -55341.18, -23351.78, -35365.20, 0.00, 0.00, 0.00, 0, -1
78, 8233.56, 4592.93, -2067.63, -65611.73, -24946.85, -55615.18, -23605.21, -35614.46, 0.00, 0.00, 0.00, 0, -1
79, 8144.08, 4543.22, -1000.73, -65620.38, -25068.08, -55664.31, -23742.92, -35586.75, 0.00, 0.00, 0.00, 0, -1
80, 8380.43, 4799.23, -1785.43, -65341.68, -24847.14, -55405.57, -23534.87, -35321.48, 0.00, 0.00, 0.00, 0, -1
81, 8510.40, 4883.63, -3111.16, -65307.91, -24688.78, -55329.82, -23359.90, -35342.18, 0.00, 0.00, 0.00, 0, -1
82, 8260.22, 4613.65, -2325.86, -65595.15, -24932.79, -55602.91, -23591.86, -35612.56, 0.01, 0.86, 0.51, 0, -1
83, 8124.61, 4515.63, -1075.57, -65657.76, -25099.47, -55699.74, -23768.15, -35626.36, 0.00, 0.00, 0.00, 0, -1
84, 8339.68, 4760.56, -1524.08, -65374.74, -24891.26, -55452.60, -23576.75, -35354.25, 0.00, 0.00, 0.00, 0, -1
85, 8520.02, 4907.35, -3028.64, -65268.12, -24670.31, -55317.17, -23358.33, -35307.95, 0.00, 0.00, 0.00, 0, -1
86, 8303.36, 4659.11, -2561.60, -65551.34, -24877.07, -55570.28, -23541.66, -35604.56, 0.00, 0.00, 0.00, 0, -1
87, 8117.57, 4505.51, -1217.48, -65672.75, -25092.31, -55719.57, -23751.54, -35664.84, 0.00, 0.00, 0.00, 0, -1
88, 8270.79, 4692.28, -1283.03, -65428.16, -24953.53, -55519.79, -23639.25, -35421.61, 0.00, 0.00, 0.00, 0, -1
89, 8511.90, 4910.61, -2855.01, -65251.69, -24693.40, -55302.28, -23369.62, -35283.88, 0.00, 0.00, 0.00, 0, -1
90, 8341.00, 4700.59, -2774.01, -65503.89, -24840.41, -55522.31, -23492.17, -35561.07, 0.00, 0.00, 0.00, 0, -1
91, 8125.95, 4511.12, -1392.78, -65661.80, -25076.15, -55706.89, -23737.48, -35673.63, 0.01, 0.86, 0.51, 0, -1
92, 8223.34, 4645.23, -1132.76, -65486.56, -25002.53, -55565.21, -23685.12, -35475.88, 0.00, 0.00, 0.00, 0, -1
93, 8500.30, 4910.75, -2636.08, -65238.82, -24711.95, -55297.12, -23398.05, -35261.17, 0.00, 0.00, 0.00, 0, -1
94, 8381.10, 4744.43, -2964.09, -65468.17, -24801.41, -55475.33, -23457.42, -35517.46, 0.00, 0.00, 0.00, 0, -1
95, 8127.41, 4509.42, -1603.13, -65685.23, -25068.17, -55710.80, -23719.02, -35679.75, 0.00, 0.00, 0.00, 0, -1
96, 8165.92, 4591.20, -1012.15, -65567.14, -25057.42, -55629.06, -23731.18, -35527.85, 0.00, 0.00, 0.00, 0, -1
97, 8427.70, 4854.62, -2321.36, -65308.64, -24782.67, -55366.05, -23483.44, -35297.63, 0.00, 0.00, 0.00, 0, -1
98, 8415.41, 4792.46, -3058.81, -65435.54, -24757.17, -55435.99, -23443.16, -35471.68, 0.00, 0.00, 0.00, 0, -1
99, 8150.76, 4533.92, -1831.52, -65694.26, -25037.13, -55690.11, -23708.32, -35687.96, 0.00, 0.00, 0.00, 0, -1
100, 8141.49, 4565.61, -977.67, -65628.56, -25077.92, -55656.27, -23771.59, -35585.21, 0.00, 0.00, 0.00, 0, -1
101, 8399.47, 4836.78, -2039.24, -65334.44, -24814.44, -55382.26, -23523.91, -35314.44, 0.01, 0.85, 0.51, 0, -1
102, 8448.91, 4835.17, -3121.85, -65393.98, -24736.88, -55395.80, -23420.92, -35424.65, 0.00, 0.00, 0.00, 0, -1
103, 8183.13, 4562.50, -2096.55, -65678.41, -25005.41, -55670.28, -23680.80, -35672.18, 0.00, 0.00, 0.00, 0, -1
104, 8105.06, 4524.22, -1011.04, -65674.52, -25105.34, -55702.02, -23804.16, -35625.35, 0.00, 0.00, 0.00, 0, -1
105, 8344.20, 4786.16, -1757.85, -65388.30, -24879.30, -55431.14, -23601.41, -35352.32, 0.00, 0.00, 0.00, 0, -1
106, 8483.07, 4883.95, -3131.86, -65348.09, -24703.35, -55344.73, -23412.49, -35360.79, 0.00, 0.00, 0.00, 0, -1
107, 8222.47, 4604.44, -2369.46, -65647.98, -24958.81, -55625.58, -23637.73, -35640.35, 0.00, 0.00, 0.00, 0, -1
108, 8093.63, 4509.78, -1114.32, -65698.80, -25119.47, -55715.57, -23800.90, -35647.93, 0.00, 0.00, 0.00, 0, -1
109, 8283.00, 4729.20, -1507.83, -65439.80, -24941.73, -55484.47, -23642.31, -35388.38, 0.00, 0.00, 0.00, 0, -1
110, 8472.25, 4885.38, -3027.72, -65333.95, -24717.79, -55341.46, -23429.63, -35337.64, 0.00, 0.00, 0.00, 0, -1
111, 8266.55, 4645.52, -2616.41, -65604.42, -24915.38, -55588.54, -23610.42, -35614.82, 0.01, 0.85, 0.51, 0, -1
112, 8080.13, 4491.65, -1254.29, -65722.84, -25137.60, -55744.55, -23830.24, -35684.38, 0.00, 0.00, 0.00, 0, -1
113, 8223.18, 4668.12, -1273.33, -65503.19, -25007.27, -55559.35, -23718.53, -35461.53, 0.00, 0.00, 0.00, 0, -1
114, 8465.25, 4885.20, -2834.98, -65313.58, -24738.51, -55341.73, -23465.80, -35328.29, 0.00, 0.00, 0.00, 0, -1
115, 8304.63, 4682.27, -2805.79, -65565.95, -24872.95, -55548.04, -23588.76, -35599.64, 0.00, 0.00, 0.00, 0, -1
116, 8092.14, 4496.52, -1434.04, -65719.24, -25112.43, -55727.73, -23812.45, -35700.25, 0.00, 0.00, 0.00, 0, -1
117, 8166.48, 4608.10, -1116.04, -65571.01, -25062.52, -55612.28, -23790.10, -35528.34, 0.00, 0.00, 0.00, 0, -1
118, 8449.72, 4885.09, -2606.55, -65315.06, -24769.67, -55346.47, -23506.75, -35322.39, 0.00, 0.00, 0.00, 0, -1
119, 8374.33, 4757.99, -3016.19, -65493.47, -24812.38, -55486.93, -23518.68, -35531.23, 0.00, 0.00, 0.00, 0, -1
120, 8122.29, 4523.93, -1684.00, -65708.41, -25080.56, -55716.19, -23769.27, -35693.63, 0.01, 0.85, 0.51, 0, -1
121, 8134.34, 4575.02, -1046.08, -65610.50, -25098.04, -55654.10, -23804.47, -35567.08, 0.00, 0.00, 0.00, 0, -1
122, 8403.43, 4844.09, -2341.66, -65340.43, -24821.16, -55386.10, -23541.24, -35335.43, 0.00, 0.00, 0.00, 0, -1
123, 8406.56, 4795.50, -3139.62, -65448.72, -24781.78, -55449.67, -23488.78, -35493.81, 0.00, 0.00, 0.00, 0, -1
124, 8138.47, 4528.11, -1924.11, -65703.27, -25067.28, -55710.27, -23755.25, -35707.20, 0.00, 0.00, 0.00, 0, -1
125, 8110.53, 4538.99, -1026.33, -65648.62, -25127.49, -55692.48, -23818.20, -35605.68, 0.00, 0.00, 0.00, 0, -1
126, 8368.00, 4810.10, -2062.28, -65368.84, -24871.05, -55422.27, -23582.72, -35355.45, 0.00, 0.00, 0.00, 0, -1
127, 8434.97, 4833.03, -3201.64, -65406.01, -24764.23, -55414.40, -23476.30, -35459.79, 0.00, 0.00, 0.00, 0, -1
128, 8171.89, 4556.74, -2193.64, -65678.95, -25036.21, -55682.60, -23725.39, -35707.85, 0.00, 0.00, 0.00, 0, -1
129, 8066.81, 4488.54, -1061.19, -65708.25, -25160.89, -55744.71, -23858.34, -35684.94, 0.00, 0.00, 0.00, 0, -1
130, 8300.72, 4752.94, -1769.77, -65417.43, -24929.48, -55474.39, -23650.34, -35411.22, 0.01, 0.86, 0.51, 0, -1
131, 8440.78, 4852.54, -3151.06, -65369.82, -24757.60, -55389.79, -23473.98, -35433.82, 0.00, 0.00, 0.00, 0, -1
132, 8196.79, 4584.14, -2417.68, -65663.88, -24996.65, -55663.42, -23695.17, -35719.38, 0.00, 0.00, 0.00, 0, -1
133, 8054.63, 4477.30, -1143.58, -65734.55, -25171.60, -55771.71, -23879.55, -35744.71, 0.00, 0.00, 0.00, 0, -1
134, 8251.93, 4702.45, -1489.56, -65476.89, -24998.57, -55541.00, -23717.84, -35469.13, 0.00, 0.00, 0.00, 0, -1
135, 8462.57, 4878.96, -3042.90, -65339.85, -24762.92, -55372.02, -23483.86, -35383.79, 0.00, 0.00, 0.00, 0, -1
136, 8247.41, 4630.97, -2651.86, -65627.94, -24957.33, -55620.01, -23645.96, -35674.72, 0.00, 0.00, 0.00, 0, -1
137, 8059.19, 4471.42, -1288.29, -65752.88, -25174.90, -55776.54, -23852.75, -35751.82, 0.00, 0.00, 0.00, 0, -1
138, 8193.17, 4641.18, -1274.68, -65547.07, -25061.74, -55597.88, -23766.34, -35534.20, 0.00, 0.00, 0.00, 0, -1
139, 8446.03, 4875.97, -2847.30, -65331.73, -24774.61, -55368.40, -23487.86, -35380.91, 0.00, 0.00, 0.00, 0, -1
140, 8297.66, 4685.42, -2871.80, -65561.60, -24897.21, -55556.49, -23584.64, -35627.81, 0.01, 0.86, 0.50, 0, -1
141, 8059.86, 4472.65, -1481.97, -65745.95, -25166.19, -55759.31, -23835.70, -35748.17, 0.00, 0.00, 0.00, 0, -1
142, 8128.12, 4574.08, -1113.97, -65603.53, -25125.01, -55655.57, -23815.16, -35584.07, 0.00, 0.00, 0.00, 0, -1
143, 8408.32, 4848.81, -2586.57, -65350.33, -24828.54, -55400.23, -23558.96, -35388.60, 0.00, 0.00, 0.00, 0, -1
144, 8335.90, 4728.40, -3023.57, -65523.55, -24860.21, -55539.43, -23590.30, -35612.27, 0.00, 0.00, 0.00, 0, -1
145, 8092.96, 4498.42, -1700.77, -65735.45, -25117.30, -55761.66, -23815.45, -35761.40, 0.00, 0.00, 0.00, 0, -1
146, 8096.87, 4540.87, -1029.14, -65645.44, -25132.95, -55696.88, -23828.86, -35628.10, 0.00, 0.00, 0.00, 0, -1
147, 8373.21, 4818.90, -2297.27, -65362.98, -24855.61, -55414.15, -23573.33, -35389.05, 0.00, 0.00, 0.00, 0, -1
148, 8367.73, 4760.77, -3132.51, -65482.32, -24828.67, -55485.01, -23537.01, -35570.81, 0.00, 0.00, 0.00, 0, -1
149, 8111.29, 4507.12, -1940.71, -65725.81, -25097.57, -55732.26, -23782.97, -35772.16, 0.00, 0.00, 0.00, 0, -1
150, 8066.50, 4502.96, -1003.93, -65695.93, -25181.23, -55740.80, -23875.89, -35701.97, 0.01, 0.86, 0.50, 0, -1
151, 8338.90, 4791.25, -2014.03, -65382.56, -24908.47, -55446.00, -23620.81, -35411.69, 0.00, 0.00, 0.00, 0, -1
152, 8401.31, 4808.84, -3180.52, -65424.20, -24811.13, -55437.84, -23517.14, -35510.71, 0.00, 0.00, 0.00, 0, -1
153, 8127.85, 4526.16, -2183.68, -65723.38, -25086.90, -55721.13, -23781.18, -35781.72, 0.00, 0.00, 0.00, 0, -1
154, 8037.26, 4467.64, -1044.54, -65733.98, -25204.43, -55769.59, -23896.12, -35743.41, 0.00, 0.00, 0.00, 0, -1
155, 8266.81, 4722.21, -1707.03, -65445.23, -24987.10, -55512.48, -23699.93, -35478.14, 0.00, 0.00, 0.00, 0, -1
156, 8417.42, 4833.18, -3128.28, -65390.92, -24813.63, -55421.73, -23522.91, -35493.70, 0.00, 0.00, 0.00, 0, -1
157, 8167.06, 4559.20, -2425.41, -65691.53, -25046.80, -55699.81, -23734.62, -35765.79, 0.00, 0.00, 0.00, 0, -1
158, 8022.85, 4450.01, -1138.66, -65764.35, -25212.54, -55806.78, -23903.38, -35780.92, 0.00, 0.00, 0.00, 0, -1
159, 8211.79, 4669.57, -1432.34, -65502.70, -25037.22, -55576.74, -23749.82, -35525.55, 0.02, 0.86, 0.50, 0, -1
160, 8433.69, 4862.20, -2993.48, -65354.31, -24782.59, -55397.52, -23501.88, -35436.81, 0.00, 0.00, 0.00, 0, -1
161, 8216.23, 4608.44, -2643.29, -65640.25, -24988.02, -55646.66, -23680.38, -35724.08, 0.00, 0.00, 0.00, 0, -1
162, 8025.64, 4448.27, -1286.77, -65764.02, -25211.16, -55793.44, -23902.37, -35796.21, 0.00, 0.00, 0.00, 0, -1
163, 8150.29, 4607.12, -1224.12, -65561.77, -25107.69, -55634.32, -23834.98, -35590.05, 0.00, 0.00, 0.00, 0, -1
164, 8394.91, 4829.47, -2779.28, -65368.95, -24848.50, -55426.16, -23578.61, -35472.75, 0.00, 0.00, 0.00, 0, -1
165, 8249.25, 4641.88, -2842.56, -65605.85, -24961.18, -55615.52, -23662.14, -35721.82, 0.00, 0.00, 0.00, 0, -1
166, 8031.25, 4446.07, -1463.23, -65777.88, -25194.97, -55803.74, -23877.50, -35822.04, 0.00, 0.00, 0.00, 0, -1
167, 8091.91, 4546.77, -1052.59, -65627.98, -25158.25, -55695.88, -23864.69, -35659.01, 0.00, 0.00, 0.00, 0, -1
168, 8368.29, 4817.49, -2496.04, -65370.13, -24862.49, -55429.17, -23589.63, -35437.82, 0.00, 0.00, 0.00, 0, -1
169, 8299.92, 4698.00, -2996.39, -65549.26, -24902.35, -55559.77, -23603.35, -35654.38, 0.01, 0.86, 0.50, 0, -1
170, 8043.14, 4453.61, -1680.72, -65780.94, -25178.17, -55800.93, -23875.82, -35839.21, 0.00, 0.00, 0.00, 0, -1
171, 8057.31, 4507.07, -984.62, -65679.95, -25191.49, -55735.77, -23905.59, -35699.58, 0.00, 0.00, 0.00, 0, -1
172, 8328.64, 4782.71, -2227.60, -65397.18, -24914.06, -55458.63, -23645.15, -35454.87, 0.00, 0.00, 0.00, 0, -1
173, 8340.20, 4744.14, -3115.83, -65501.32, -24867.07, -55513.04, -23591.97, -35615.52, 0.00, 0.00, 0.00, 0, -1
174, 8082.64, 4485.73, -1958.68, -65765.70, -25138.47, -55767.49, -23841.24, -35834.41, 0.00, 0.00, 0.00, 0, -1
175, 8028.99, 4472.76, -991.17, -65747.09, -25236.62, -55788.81, -23935.45, -35776.74, 0.00, 0.00, 0.00, 0, -1
176, 8297.88, 4757.19, -1938.32, -65449.73, -24982.57, -55506.84, -23706.55, -35496.38, 0.00, 0.00, 0.00, 0, -1
177, 8379.45, 4790.27, -3152.31, -65451.80, -24851.88, -55465.23, -23563.54, -35550.67, 0.00, 0.00, 0.00, 0, -1
178, 8101.23, 4497.15, -2214.77, -65739.09, -25112.36, -55739.64, -23798.93, -35805.68, 0.00, 0.00, 0.00, 0, -1
179, 7978.50, 4407.74, -1032.99, -65787.53, -25260.91, -55824.08, -23960.78, -35807.09, 0.01, 0.86, 0.51, 0, -1
180, 8216.37, 4671.58, -1654.97, -65500.09, -25037.84, -55557.14, -23771.04, -35530.31, 0.00, 0.00, 0.00, 0, -1
181, 8354.39, 4766.06, -3102.91, -65447.80, -24859.70, -55465.65, -23585.49, -35538.13, 0.00, 0.00, 0.00, 0, -1
182, 8112.68, 4497.91, -2460.70, -65731.98, -25084.74, -55729.54, -23785.96, -35813.51, 0.00, 0.00, 0.00, 0, -1
183, 7965.45, 4378.35, -1184.55, -65817.86, -25275.22, -55848.18, -23981.23, -35853.18, 0.00, 0.00, 0.00, 0, -1
184, 8135.79, 4578.62, -1430.89, -65579.81, -25122.71, -55642.14, -23869.05, -35622.06, 0.00, 0.00, 0.00, 0, -1
185, 8337.87, 4753.08, -2994.06, -65444.72, -24877.07, -55473.32, -23616.99, -35529.41, 0.00, 0.00, 0.00, 0, -1
186, 8143.28, 4524.93, -2723.56, -65709.39, -25051.66, -55712.64, -23752.66, -35800.70, 0.00, 0.00, 0.00, 0, -1
187, 7949.46, 4358.81, -1354.11, -65841.62, -25277.12, -55876.88, -23988.14, -35890.33, 0.00, 0.00, 0.00, 0, -1
188, 8067.17, 4514.67, -1259.23, -65647.07, -25167.53, -55712.88, -23900.65, -35680.13, 0.00, 0.00, 0.00, 0, -1
189, 8314.02, 4746.12, -2807.47, -65439.13, -24907.04, -55487.87, -23645.55, -35530.93, 0.00, 0.86, 0.52, 0, -1
190, 8181.48, 4568.12, -2958.12, -65675.16, -25023.47, -55676.38, -23741.69, -35790.86, 0.00, 0.00, 0.00, 0, -1
191, 7939.16, 4344.37, -1565.00, -65869.72, -25281.81, -55887.52, -23997.32, -35912.37, 0.00, 0.00, 0.00, 0, -1
192, 8007.13, 4451.31, -1109.81, -65720.74, -25236.95, -55779.25, -23962.39, -35740.71, 0.00, 0.00, 0.00, 0, -1
193, 8283.62, 4722.88, -2547.96, -65461.35, -24951.63, -55509.73, -23689.65, -35541.08, 0.00, 0.00, 0.00, 0, -1
194, 8213.62, 4601.33, -3082.42, -65640.39, -24989.47, -55637.94, -23708.45, -35760.53, 0.00, 0.00, 0.00, 0, -1
195, 7954.05, 4354.70, -1763.40, -65863.59, -25254.65, -55869.93, -23964.60, -35924.30, 0.00, 0.00, 0.00, 0, -1
196, 7959.93, 4403.25, -1001.78, -65769.09, -25283.13, -55823.68, -24005.08, -35795.07, 0.00, 0.00, 0.00, 0, -1
197, 8248.64, 4700.86, -2208.20, -65466.96, -24992.76, -55526.22, -23739.94, -35531.32, 0.00, 0.00, 0.00, 0, -1
198, 8262.68, 4663.76, -3142.86, -65568.37, -24945.44, -55572.89, -23674.07, -35690.39, 0.00, 0.86, 0.51, 0, -1
199, 7987.15, 4387.22, -1993.24, -65845.24, -25228.59, -55837.98, -23945.18, -35927.01, 0.00, 0.00, 0.00, 0, -1
200, 7952.35, 4388.47, -1012.09, -65804.38, -25284.67, -55827.37, -24005.26, -35836.08, 0.00, 0.00, 0.00, 0, -1
201, 8205.55, 4658.86, -1916.19, -65503.35, -25034.62, -55557.65, -23779.08, -35567.75, 0.00, 0.00, 0.00, 0, -1
202, 8305.48, 4712.71, -3174.37, -65513.52, -24906.30, -55522.47, -23645.20, -35644.68, 0.00, 0.00, 0.00, 0, -1
203, 8055.46, 4446.23, -2273.95, -65791.77, -25160.71, -55787.38, -23881.18, -35894.02, 0.00, 0.00, 0.00, 0, -1
204, 7935.61, 4362.86, -1095.26, -65831.16, -25310.76, -55863.76, -24027.50, -35879.13, 0.00, 0.00, 0.00, 0, -1
205, 8152.66, 4605.89, -1655.19, -65556.93, -25104.94, -55615.30, -23824.43, -35607.45, 0.00, 0.00, 0.00, 0, -1
206, 8314.27, 4727.80, -3122.72, -65481.22, -24899.19, -55501.91, -23621.99, -35589.12, 0.00, 0.00, 0.00, 0, -1
207, 8087.82, 4474.89, -2540.70, -65774.84, -25119.98, -55760.49, -23827.56, -35865.25, 0.00, 0.00, 0.00, 0, -1
208, 7928.97, 4348.89, -1236.14, -65851.41, -25315.67, -55884.01, -24030.11, -35907.56, 0.01, 0.86, 0.51, 0, -1
209, 8094.24, 4545.92, -1445.91, -65618.26, -25168.18, -55683.11, -23898.51, -35676.87, 0.00, 0.00, 0.00, 0, -1
210, 8319.39, 4744.54, -3004.79, -65456.63, -24912.05, -55490.91, -23640.37, -35573.49, 0.00, 0.00, 0.00, 0, -1
211, 8118.47, 4507.23, -2777.70, -65737.75, -25092.60, -55727.50, -23796.87, -35862.55, 0.00, 0.00, 0.00, 0, -1
212, 7905.23, 4319.68, -1384.76, -65881.32, -25331.23, -55909.73, -24034.85, -35962.70, 0.00, 0.00, 0.00, 0, -1
213, 8012.23, 4462.39, -1206.37, -65690.84, -25240.13, -55763.78, -23957.69, -35753.36, 0.00, 0.00, 0.00, 0, -1
214, 8279.73, 4714.63, -2756.48, -65460.73, -24951.10, -55517.26, -23676.29, -35568.31, 0.00, 0.00, 0.00, 0, -1
215, 8139.25, 4530.03, -2929.58, -65694.57, -25065.78, -55697.08, -23770.88, -35830.43, 0.00, 0.00, 0.00, 0, -1
216, 7920.92, 4331.90, -1568.51, -65869.18, -25304.61, -55885.04, -23997.48, -35949.52, 0.00, 0.00, 0.00, 0, -1
217, 7979.19, 4432.06, -1082.94, -65729.28, -25265.79, -55788.41, -23976.31, -35776.43, 0.00, 0.00, 0.00, 0, -1
218, 8247.17, 4721.18, -2491.08, -65470.87, -24984.69, -55529.20, -23720.95, -35574.12, 0.00, 0.87, 0.50, 0, -1
219, 8194.53, 4631.71, -3099.45, -65629.57, -25010.84, -55633.63, -23716.52, -35776.25, 0.00, 0.00, 0.00, 0, -1
220, 7950.67, 4395.94, -1822.09, -65853.18, -25270.46, -55861.57, -23965.92, -35948.09, 0.00, 0.00, 0.00, 0, -1
221, 7940.59, 4425.73, -1062.47, -65791.30, -25309.35, -55830.54, -24012.63, -35834.14, 0.00, 0.00, 0.00, 0, -1
222, 8200.70, 4691.61, -2220.74, -65511.64, -25049.15, -55559.19, -23764.24, -35576.80, 0.00, 0.00, 0.00, 0, -1
223, 8238.90, 4674.22, -3197.51, -65587.52, -24974.86, -55586.53, -23674.86, -35705.39, 0.00, 0.00, 0.00, 0, -1
224, 7979.59, 4413.24, -2087.43, -65861.78, -25238.49, -55853.70, -23931.05, -35940.62, 0.00, 0.00, 0.00, 0, -1
225, 7924.25, 4397.62, -1075.41, -65825.41, -25327.59, -55867.49, -24042.32, -35883.96, 0.00, 0.00, 0.00, 0, -1
226, 8153.87, 4643.89, -1933.14, -65553.91, -25098.42, -55607.54, -23844.30, -35625.17, 0.00, 0.00, 0.00, 0, -1
227, 8246.88, 4693.02, -3193.71, -65561.60, -24967.63, -55564.58, -23684.44, -35685.52, 0.00, 0.00, 0.00, 0, -1
228, 8003.13, 4433.98, -2305.45, -65822.64, -25212.83, -55822.86, -23908.52, -35943.26, 0.00, 0.86, 0.50, 0, -1
229, 7895.17, 4362.48, -1113.70, -65862.66, -25349.67, -55889.57, -24054.23, -35929.36, 0.00, 0.00, 0.00, 0, -1
230, 8100.70, 4592.97, -1627.30, -65598.50, -25155.93, -55648.53, -23891.76, -35670.30, 0.00, 0.00, 0.00, 0, -1
231, 8288.54, 4742.32, -3118.02, -65497.85, -24939.70, -55519.16, -23672.73, -35629.93, 0.00, 0.00, 0.00, 0, -1
232, 8067.03, 4491.34, -2580.11, -65768.91, -25151.54, -55771.02, -23844.28, -35904.84, 0.00, 0.00, 0.00, 0, -1
233, 7887.84, 4342.83, -1247.45, -65881.25, -25361.03, -55911.97, -24063.28, -35967.20, 0.00, 0.00, 0.00, 0, -1
234, 8046.90, 4532.84, -1413.10, -65664.44, -25227.05, -55718.47, -23967.91, -35747.08, 0.00, 0.00, 0.00, 0, -1
235, 8271.89, 4733.12, -2971.82, -65497.18, -24969.33, -55533.00, -23702.68, -35637.15, 0.00, 0.00, 0.00, 0, -1
236, 8088.34, 4512.82, -2795.24, -65753.35, -25135.25, -55755.78, -23834.47, -35901.50, 0.00, 0.00, 0.00, 0, -1
237, 7891.64, 4342.07, -1408.18, -65886.64, -25358.32, -55917.43, -24056.82, -35972.88, 0.00, 0.86, 0.50, 0, -1
238, 8001.77, 4484.85, -1223.76, -65706.80, -25269.59, -55771.78, -23992.05, -35787.36, 0.00, 0.00, 0.00, 0, -1
239, 8261.29, 4728.20, -2753.15, -65473.38, -25000.63, -55532.35, -23729.64, -35621.23, 0.00, 0.00, 0.00, 0, -1
240, 8138.27, 4558.82, -2988.96, -65705.52, -25092.34, -55712.55, -23809.19, -35885.41, 0.00, 0.00, 0.00, 0, -1
241, 7916.79, 4357.41, -1632.39, -65901.68, -25322.18, -55908.53, -24040.80, -36005.55, 0.00, 0.00, 0.00, 0, -1
242, 7966.52, 4445.69, -1105.11, -65746.91, -25298.98, -55805.87, -24020.68, -35837.02, 0.00, 0.00, 0.00, 0, -1
243, 8253.29, 4735.49, -2492.64, -65457.98, -25002.30, -55517.80, -23736.41, -35579.02, 0.00, 0.00, 0.00, 0, -1
244, 8199.20, 4632.31, -3139.37, -65636.09, -25033.71, -55645.83, -23740.44, -35786.95, 0.00, 0.00, 0.00, 0, -1
245, 7930.42, 4370.95, -1852.60, -65894.75, -25323.36, -55900.95, -24004.37, -35999.99, 0.00, 0.00, 0.00, 0, -1
246, 7906.75, 4384.76, -1027.08, -65840.55, -25361.65, -55874.13, -24077.83, -35917.29, 0.00, 0.00, 0.00, 0, -1
247, 8178.79, 4670.53, -2158.37, -65522.26, -25076.87, -55586.80, -23828.81, -35656.69, 0.00, 0.86, 0.50, 0, -1
248, 8224.28, 4663.04, -3179.49, -65586.23, -24996.83, -55608.84, -23728.03, -35761.72, 0.00, 0.00, 0.00, 0, -1
249, 7966.74, 4401.42, -2087.50, -65851.12, -25264.29, -55872.81, -23970.95, -35994.40, 0.00, 0.00, 0.00, 0, -1
250, 7897.47, 4372.52, -1045.44, -65835.63, -25362.97, -55891.59, -24080.58, -35956.60, 0.00, 0.00, 0.00, 0, -1
251, 8138.34, 4632.53, -1872.34, -65551.92, -25124.95, -55624.13, -23872.47, -35688.63, 0.00, 0.00, 0.00, 0, -1
252, 8238.34, 4685.64, -3175.07, -65554.73, -24986.52, -55584.50, -23723.27, -35736.66, 0.00, 0.00, 0.00, 0, -1
253, 7996.29, 4426.65, -2342.19, -65826.42, -25223.16, -55842.52, -23939.39, -35991.94, 0.00, 0.00, 0.00, 0, -1
254, 7879.19, 4347.26, -1126.55, -65863.19, -25382.10, -55921.43, -24098.26, -35987.83, 0.00, 0.00, 0.00, 0, -1
255, 8094.48, 4589.06, -1622.60, -65591.13, -25188.13, -55679.45, -23926.22, -35727.59, 0.00, 0.00, 0.00, 0, -1
0, 8272.98, 4730.21, -3116.12, -65485.89, -24973.87, -55546.32, -23705.01, -35682.50, 0.00, 0.00, 0.00, 0, -1
1, 8047.75, 4471.98, -2617.05, -65778.08, -25182.53, -55806.71, -23886.17, -35964.05, -0.00, 0.86, 0.50, 0, -1
2, 7887.21, 4341.98, -1279.50, -65878.23, -25374.48, -55929.67, -24082.69, -36009.20, 0.00, 0.00, 0.00, 0, -1
3, 8034.40, 4524.35, -1386.70, -65648.66, -25254.10, -55739.86, -23980.25, -35779.55, 0.00, 0.00, 0.00, 0, -1
4, 8262.46, 4729.05, -2944.64, -65467.61, -24994.10, -55527.63, -23720.72, -35648.17, 0.00, 0.00, 0.00, 0, -1
5, 8081.92, 4505.13, -2809.64, -65748.68, -25148.10, -55754.01, -23856.98, -35931.95, 0.00, 0.00, 0.00, 0, -1
6, 7868.73, 4317.24, -1429.13, -65906.53, -25387.00, -55936.67, -24084.09, -36035.48, 0.00, 0.00, 0.00, 0, -1
7, 7960.89, 4447.89, -1168.08, -65732.52, -25325.08, -55806.78, -24037.62, -35852.73, 0.00, 0.00, 0.00, 0, -1
8, 8241.45, 4718.97, -2695.93, -65476.91, -25025.39, -55546.16, -23759.99, -35647.59, 0.00, 0.00, 0.00, 0, -1
9, 8136.50, 4564.78, -2992.54, -65691.46, -25085.61, -55708.01, -23802.39, -35876.18, 0.00, 0.00, 0.00, 0, -1
10, 7900.07, 4345.78, -1649.98, -65900.27, -25345.58, -55931.53, -24059.24, -36033.09, 0.01, 0.86, 0.50, 0, -1
11, 7937.10, 4422.00, -1110.43, -65781.98, -25338.56, -55851.22, -24064.16, -35891.18, 0.00, 0.00, 0.00, 0, -1
12, 8197.17, 4678.85, -2455.72, -65508.45, -25075.71, -55582.91, -23800.90, -35665.40, 0.00, 0.00, 0.00, 0, -1
13, 8170.34, 4605.26, -3163.20, -65659.74, -25069.22, -55675.64, -23776.44, -35854.23, 0.00, 0.00, 0.00, 0, -1
14, 7914.73, 4353.99, -1920.06, -65895.60, -25340.91, -55922.70, -24040.48, -36050.70, 0.00, 0.00, 0.00, 0, -1
15, 7896.11, 4371.53, -1085.11, -65815.36, -25386.37, -55886.04, -24093.08, -35929.67, 0.00, 0.00, 0.00, 0, -1
16, 8172.60, 4657.77, -2190.98, -65507.51, -25104.34, -55598.73, -23836.21, -35664.18, 0.00, 0.00, 0.00, 0, -1
17, 8215.29, 4653.03, -3254.12, -65577.24, -25030.00, -55614.94, -23742.16, -35790.71, 0.00, 0.00, 0.00, 0, -1
18, 7939.41, 4371.13, -2177.66, -65859.23, -25304.88, -55888.30, -23993.88, -36025.20, 0.00, 0.00, 0.00, 0, -1
19, 7842.76, 4312.61, -1086.90, -65871.57, -25435.79, -55937.92, -24134.79, -35998.51, 0.00, 0.00, 0.00, 0, -1
20, 8072.60, 4567.42, -1848.47, -65593.92, -25207.00, -55676.23, -23923.45, -35734.47, 0.01, 0.86, 0.51, 0, -1
21, 8205.41, 4655.94, -3185.32, -65561.48, -25036.75, -55609.33, -23750.98, -35764.69, 0.00, 0.00, 0.00, 0, -1
22, 7961.89, 4392.86, -2378.20, -65834.76, -25280.80, -55880.39, -23988.61, -36037.74, 0.00, 0.00, 0.00, 0, -1
23, 7833.79, 4303.27, -1155.00, -65885.61, -25424.86, -55957.57, -24143.86, -36033.61, 0.00, 0.00, 0.00, 0, -1
24, 8030.00, 4529.25, -1587.29, -65651.03, -25236.95, -55727.28, -23973.63, -35781.05, 0.00, 0.00, 0.00, 0, -1
25, 8230.05, 4694.58, -3116.10, -65518.95, -25013.32, -55574.97, -23748.50, -35716.75, 0.00, 0.00, 0.00, 0, -1
26, 8013.23, 4450.30, -2662.34, -65795.09, -25216.66, -55831.77, -23933.82, -35995.43, 0.00, 0.00, 0.00, 0, -1
27, 7849.40, 4314.98, -1316.27, -65900.56, -25413.46, -55967.38, -24131.21, -36050.64, 0.00, 0.00, 0.00, 0, -1
28, 7985.58, 4486.58, -1392.02, -65695.59, -25301.77, -55783.45, -24030.85, -35829.11, 0.00, 0.00, 0.00, 0, -1
29, 8218.58, 4693.06, -2952.62, -65527.29, -25043.05, -55574.57, -23781.09, -35699.71, 0.00, 0.00, 0.00, 0, -1
30, 8040.93, 4469.99, -2872.22, -65774.38, -25193.43, -55809.60, -23919.52, -35990.75, 0.01, 0.86, 0.51, 0, -1
31, 7831.16, 4282.24, -1479.15, -65934.63, -25426.47, -55994.00, -24149.25, -36098.76, 0.00, 0.00, 0.00, 0, -1
32, 7930.02, 4418.90, -1203.89, -65760.17, -25352.62, -55843.69, -24093.44, -35888.74, 0.00, 0.00, 0.00, 0, -1
33, 8184.60, 4667.58, -2700.58, -65531.20, -25087.20, -55616.64, -23842.05, -35717.50, 0.00, 0.00, 0.00, 0, -1
34, 8084.60, 4520.71, -3047.39, -65736.19, -25147.10, -55767.54, -23888.16, -35951.04, 0.00, 0.00, 0.00, 0, -1
35, 7842.53, 4296.59, -1693.50, -65939.61, -25412.39, -55981.82, -24141.72, -36098.45, 0.00, 0.00, 0.00, 0, -1
36, 7883.62, 4377.79, -1094.81, -65820.05, -25408.43, -55902.58, -24147.73, -35940.84, 0.00, 0.00, 0.00, 0, -1
37, 8173.27, 4671.96, -2422.53, -65521.99, -25112.88, -55611.03, -23878.21, -35693.14, 0.00, 0.00, 0.00, 0, -1
38, 8156.89, 4603.25, -3169.43, -65650.20, -25093.63, -55688.16, -23828.14, -35867.04, 0.00, 0.00, 0.00, 0, -1
39, 7863.99, 4315.21, -1915.52, -65935.54, -25402.29, -55962.93, -24117.80, -36105.49, 0.00, 0.00, 0.00, 0, -1
40, 7841.24, 4331.01, -1043.54, -65878.45, -25445.43, -55943.71, -24189.48, -36023.05, 0.01, 0.87, 0.51, 0, -1
41, 8112.21, 4612.93, -2113.60, -65585.76, -25177.25, -55667.22, -23935.77, -35754.77, 0.00, 0.00, 0.00, 0, -1
42, 8165.78, 4614.36, -3217.67, -65638.82, -25093.81, -55678.95, -23837.17, -35863.71, 0.00, 0.00, 0.00, 0, -1
43, 7906.68, 4352.11, -2178.16, -65906.15, -25354.25, -55936.04, -24075.00, -36097.55, 0.00, 0.00, 0.00, 0, -1
44, 7820.61, 4307.02, -1081.69, -65915.34, -25472.52, -55972.36, -24210.36, -36051.71, 0.00, 0.00, 0.00, 0, -1
45, 8046.94, 4555.87, -1837.56, -65646.80, -25246.56, -55714.85, -24003.61, -35783.38, 0.00, 0.00, 0.00, 0, -1
46, 8171.19, 4639.71, -3189.12, -65613.63, -25086.17, -55648.11, -23831.76, -35813.62, 0.00, 0.00, 0.00, 0, -1
47, 7941.49, 4387.38, -2425.70, -65890.51, -25311.12, -55899.52, -24026.31, -36066.62, 0.00, 0.00, 0.00, 0, -1
48, 7800.89, 4284.34, -1163.56, -65950.59, -25482.80, -55993.78, -24195.20, -36078.04, 0.00, 0.00, 0.00, 0, -1
49, 8007.47, 4518.20, -1563.55, -65677.54, -25289.93, -55759.82, -24031.59, -35814.63, 0.01, 0.86, 0.51, 0, -1
50, 8194.53, 4672.27, -3098.26, -65576.17, -25080.60, -55618.49, -23817.48, -35764.82, 0.00, 0.00, 0.00, 0, -1
51, 7979.97, 4423.68, -2682.68, -65853.65, -25283.22, -55869.77, -23995.09, -36049.65, 0.00, 0.00, 0.00, 0, -1
52, 7803.66, 4278.06, -1330.93, -65961.56, -25474.46, -56004.73, -24195.07, -36108.57, 0.00, 0.00, 0.00, 0, -1
53, 7946.67, 4453.52, -1360.06, -65740.37, -25346.34, -55810.43, -24089.41, -35873.50, 0.00, 0.00, 0.00, 0, -1
54, 8195.49, 4682.09, -2930.63, -65545.98, -25069.83, -55597.50, -23827.65, -35736.88, 0.00, 0.00, 0.00, 0, -1
55, 8020.61, 4463.02, -2896.32, -65807.16, -25210.84, -55828.87, -23938.99, -36014.71, 0.00, 0.00, 0.00, 0, -1
56, 7799.55, 4262.54, -1491.93, -65963.20, -25463.11, -56018.84, -24174.80, -36125.65, 0.00, 0.00, 0.00, 0, -1
57, 7891.91, 4387.74, -1165.62, -65803.78, -25408.19, -55877.23, -24138.12, -35947.55, 0.00, 0.00, 0.00, 0, -1
58, 8168.27, 4653.66, -2657.42, -65552.50, -25123.31, -55617.71, -23869.81, -35748.84, 0.00, 0.00, 0.00, 0, -1
59, 8065.65, 4500.81, -3036.04, -65773.52, -25197.63, -55784.41, -23930.83, -35989.41, 0.01, 0.86, 0.51, 0, -1
60, 7822.22, 4268.00, -1686.77, -65992.65, -25467.73, -56013.78, -24190.55, -36157.61, 0.00, 0.00, 0.00, 0, -1
61, 7857.33, 4340.78, -1065.31, -65870.68, -25464.83, -55936.04, -24192.68, -36020.02, 0.00, 0.00, 0.00, 0, -1
62, 8149.76, 4635.06, -2384.19, -65576.59, -25169.92, -55654.30, -23918.06, -35771.53, 0.00, 0.00, 0.00, 0, -1
63, 8134.67, 4566.77, -3184.61, -65701.14, -25148.10, -55728.44, -23885.32, -35937.67, 0.00, 0.00, 0.00, 0, -1
64, 7877.92, 4309.60, -1964.56, -65960.48, -25415.54, -55981.42, -24142.99, -36137.98, 0.00, 0.00, 0.00, 0, -1
65, 7832.59, 4303.92, -1049.66, -65935.12, -25492.81, -55987.77, -24225.31, -36061.48, 0.00, 0.00, 0.00, 0, -1
66, 8097.57, 4583.58, -2069.55, -65621.86, -25235.54, -55706.18, -23988.74, -35793.50, 0.00, 0.00, 0.00, 0, -1
67, 8164.06, 4605.38, -3212.88, -65657.87, -25136.88, -55697.37, -23880.13, -35891.02, 0.00, 0.00, 0.00, 0, -1
68, 7894.41, 4322.20, -2187.70, -65939.97, -25394.71, -55970.02, -24124.21, -36144.58, 0.00, 0.00, 0.00, 0, -1
69, 7816.94, 4279.31, -1075.12, -65941.16, -25497.21, -56003.77, -24236.69, -36100.41, 0.01, 0.86, 0.51, 0, -1
70, 8051.01, 4534.86, -1780.52, -65652.73, -25283.73, -55739.91, -24036.93, -35819.12, 0.00, 0.00, 0.00, 0, -1
71, 8174.66, 4615.66, -3184.03, -65627.96, -25125.30, -55669.05, -23858.41, -35838.65, 0.00, 0.00, 0.00, 0, -1
72, 7940.55, 4366.15, -2454.60, -65908.41, -25345.36, -55930.68, -24063.84, -36119.66, 0.00, 0.00, 0.00, 0, -1
73, 7800.83, 4278.21, -1198.05, -65976.55, -25521.42, -56041.30, -24246.43, -36138.12, 0.00, 0.00, 0.00, 0, -1
74, 7998.28, 4514.29, -1555.95, -65712.43, -25342.88, -55803.50, -24072.89, -35871.06, 0.00, 0.00, 0.00, 0, -1
75, 8188.96, 4673.01, -3104.79, -65580.84, -25124.34, -55637.80, -23853.27, -35802.55, 0.00, 0.00, 0.00, 0, -1
76, 7961.00, 4410.51, -2704.00, -65869.85, -25311.94, -55896.48, -24039.81, -36093.39, 0.00, 0.00, 0.00, 0, -1
77, 7794.97, 4273.50, -1340.23, -65978.66, -25512.64, -56038.62, -24236.13, -36144.47, 0.00, 0.00, 0.00, 0, -1
78, 7927.27, 4441.31, -1317.68, -65772.71, -25414.25, -55875.54, -24146.61, -35939.77, 0.00, 0.00, 0.00, 0, -1
79, 8175.17, 4669.77, -2897.75, -65576.30, -25141.96, -55650.48, -23885.88, -35799.65, 0.01, 0.87, 0.50, 0, -1
80, 8013.52, 4463.00, -2916.57, -65826.16, -25278.50, -55854.14, -24003.20, -36073.10, 0.00, 0.00, 0.00, 0, -1
81, 7799.33, 4273.18, -1533.98, -65997.48, -25519.97, -56043.93, -24228.04, -36178.96, 0.00, 0.00, 0.00, 0, -1
82, 7884.42, 4395.38, -1184.64, -65832.10, -25454.75, -55921.49, -24201.84, -35997.86, 0.00, 0.00, 0.00, 0, -1
83, 8158.79, 4661.30, -2663.81, -65572.04, -25157.22, -55651.30, -23917.97, -35779.69, 0.00, 0.00, 0.00, 0, -1
84, 8076.94, 4532.73, -3122.63, -65756.08, -25213.86, -55795.74, -23948.42, -36003.09, 0.00, 0.00, 0.00, 0, -1
85, 7808.07, 4274.73, -1770.84, -66002.13, -25505.78, -56047.06, -24232.22, -36192.43, 0.00, 0.00, 0.00, 0, -1
86, 7834.62, 4336.75, -1115.78, -65902.20, -25500.75, -55973.55, -24245.74, -36055.13, 0.00, 0.00, 0.00, 0, -1
87, 8113.95, 4620.78, -2389.83, -65629.05, -25220.32, -55691.89, -23971.57, -35798.62, 0.00, 0.00, 0.00, 0, -1
88, 8130.07, 4588.72, -3240.53, -65707.40, -25170.23, -55736.55, -23912.61, -35941.78, 0.01, 0.86, 0.51, 0, -1
89, 7861.20, 4317.51, -2036.22, -65964.66, -25447.48, -55998.43, -24168.22, -36163.07, 0.00, 0.00, 0.00, 0, -1
90, 7814.57, 4314.85, -1092.24, -65930.94, -25528.28, -55989.64, -24253.86, -36072.83, 0.00, 0.00, 0.00, 0, -1
91, 8063.30, 4581.86, -2088.90, -65649.28, -25277.30, -55720.28, -24022.71, -35815.29, 0.00, 0.00, 0.00, 0, -1
92, 8135.92, 4607.39, -3255.67, -65678.74, -25167.44, -55707.88, -23905.70, -35912.95, 0.00, 0.00, 0.00, 0, -1
93, 7884.78, 4347.21, -2268.23, -65948.77, -25421.51, -55967.89, -24147.39, -36150.39, 0.00, 0.00, 0.00, 0, -1
94, 7780.84, 4282.21, -1122.80, -65972.76, -25552.29, -56031.15, -24291.14, -36119.19, 0.00, 0.00, 0.00, 0, -1
95, 8002.59, 4526.56, -1773.77, -65693.70, -25336.55, -55774.29, -24096.21, -35849.02, 0.00, 0.00, 0.00, 0, -1
96, 8149.33, 4628.02, -3192.01, -65642.00, -25156.08, -55684.14, -23894.19, -35848.75, 0.00, 0.00, 0.00, 0, -1
97, 7920.81, 4374.17, -2498.84, -65922.49, -25367.33, -55945.12, -24094.53, -36139.59, 0.00, 0.00, 0.00, 0, -1
98, 7794.50, 4283.96, -1223.51, -65977.34, -25522.92, -56031.95, -24267.82, -36151.09, 0.01, 0.85, 0.51, 0, -1
99, 7972.31, 4493.64, -1546.05, -65742.47, -25371.33, -55817.58, -24133.47, -35902.38, 0.00, 0.00, 0.00, 0, -1
100, 8168.47, 4657.54, -3094.73, -65618.02, -25158.09, -55661.96, -23911.09, -35831.12, 0.00, 0.00, 0.00, 0, -1
101, 7973.67, 4424.66, -2756.24, -65874.81, -25338.56, -55898.56, -24065.21, -36102.22, 0.00, 0.00, 0.00, 0, -1
102, 7807.11, 4284.56, -1386.84, -65996.72, -25531.59, -56040.79, -24267.15, -36161.01, 0.00, 0.00, 0.00, 0, -1
103, 7930.40, 4446.68, -1335.76, -65791.62, -25429.94, -55867.27, -24187.18, -35940.98, 0.00, 0.00, 0.00, 0, -1
104, 8172.65, 4667.96, -2901.95, -65589.29, -25163.55, -55642.43, -23923.03, -35782.79, 0.00, 0.00, 0.00, 0, -1
105, 8015.49, 4463.06, -2957.34, -65845.89, -25294.46, -55853.43, -24030.36, -36060.27, 0.00, 0.00, 0.00, 0, -1
106, 7797.94, 4268.22, -1557.83, -66017.53, -25534.79, -56045.10, -24265.03, -36182.31, 0.00, 0.00, 0.00, 0, -1
107, 7860.93, 4366.79, -1153.73, -65869.90, -25502.13, -55936.76, -24252.98, -36022.70, 0.00, 0.00, 0.00, 0, -1
108, 8127.52, 4629.85, -2617.28, -65604.11, -25219.18, -55670.55, -23981.88, -35801.41, 0.01, 0.86, 0.51, 0, -1
109, 8059.21, 4512.26, -3100.66, -65782.77, -25249.74, -55792.39, -23994.08, -36006.71, 0.00, 0.00, 0.00, 0, -1
110, 7809.45, 4281.10, -1774.66, -66004.34, -25509.53, -56029.59, -24246.63, -36182.60, 0.00, 0.00, 0.00, 0, -1
111, 7809.92, 4327.28, -1078.18, -65920.19, -25536.49, -55980.93, -24283.13, -36068.92, 0.00, 0.00, 0.00, 0, -1
112, 8087.29, 4613.82, -2346.66, -65626.82, -25258.48, -55695.32, -24019.54, -35816.70, 0.00, 0.00, 0.00, 0, -1
113, 8085.32, 4560.05, -3233.98, -65745.73, -25221.98, -55762.41, -23973.54, -35973.99, 0.00, 0.00, 0.00, 0, -1
114, 7830.78, 4304.05, -2032.62, -65991.69, -25481.41, -56014.74, -24223.90, -36192.59, 0.00, 0.00, 0.00, 0, -1
115, 7786.61, 4295.04, -1088.78, -65962.95, -25570.98, -56021.65, -24319.75, -36133.45, 0.00, 0.00, 0.00, 0, -1
116, 8035.32, 4558.66, -2068.92, -65683.64, -25326.78, -55756.71, -24082.46, -35850.81, 0.00, 0.00, 0.00, 0, -1
117, 8118.35, 4595.32, -3281.15, -65702.33, -25204.81, -55733.54, -23958.19, -35914.65, 0.00, 0.00, 0.00, 0, -1
118, 7855.90, 4324.26, -2308.20, -65985.59, -25456.91, -55998.45, -24196.05, -36181.71, 0.00, 0.86, 0.51, 0, -1
119, 7750.00, 4254.97, -1134.37, -66012.05, -25590.73, -56065.37, -24342.93, -36164.94, 0.00, 0.00, 0.00, 0, -1
120, 7973.90, 4501.60, -1767.73, -65731.67, -25381.19, -55810.79, -24145.40, -35901.39, 0.00, 0.00, 0.00, 0, -1
121, 8136.06, 4622.03, -3219.86, -65660.77, -25184.74, -55691.56, -23939.66, -35891.67, 0.00, 0.00, 0.00, 0, -1
122, 7891.64, 4353.34, -2540.28, -65960.22, -25415.10, -55965.64, -24171.18, -36187.99, 0.00, 0.00, 0.00, 0, -1
123, 7750.44, 4242.61, -1240.12, -66035.05, -25590.44, -56077.13, -24344.20, -36214.61, 0.00, 0.00, 0.00, 0, -1
124, 7911.94, 4437.85, -1497.21, -65805.08, -25447.48, -55876.72, -24205.20, -35970.21, 0.00, 0.00, 0.00, 0, -1
125, 8139.79, 4639.64, -3074.42, -65627.47, -25185.86, -55678.57, -23944.91, -35857.36, 0.00, 0.00, 0.00, 0, -1
126, 7934.51, 4393.79, -2779.53, -65915.65, -25381.25, -55920.75, -24111.18, -36134.14, 0.00, 0.00, 0.00, 0, -1
127, 7736.79, 4227.36, -1395.87, -66054.92, -25607.30, -56085.60, -24338.41, -36219.59, 0.00, 0.85, 0.51, 0, -1
128, 7868.19, 4390.69, -1314.98, -65842.65, -25502.02, -55913.16, -24259.42, -36010.04, 0.00, 0.00, 0.00, 0, -1
129, 8137.78, 4643.26, -2885.95, -65608.36, -25210.76, -55659.84, -23979.08, -35837.63, 0.00, 0.00, 0.00, 0, -1
130, 7995.17, 4455.15, -3004.68, -65845.53, -25317.06, -55857.70, -24066.79, -36102.89, 0.00, 0.00, 0.00, 0, -1
131, 7760.59, 4243.90, -1614.89, -66035.21, -25572.67, -56077.08, -24319.64, -36246.84, 0.00, 0.00, 0.00, 0, -1
132, 7817.66, 4341.25, -1174.67, -65886.10, -25553.68, -55974.06, -24302.02, -36076.07, 0.00, 0.00, 0.00, 0, -1
133, 8086.64, 4605.00, -2628.99, -65634.71, -25270.46, -55710.80, -24031.95, -35858.59, 0.00, 0.00, 0.00, 0, -1
134, 8001.10, 4464.22, -3144.64, -65846.56, -25320.59, -55862.62, -24065.77, -36100.12, 0.00, 0.00, 0.00, 0, -1
135, 7762.40, 4237.35, -1820.42, -66057.78, -25575.98, -56093.02, -24318.94, -36274.58, 0.00, 0.00, 0.00, 0, -1
136, 7764.01, 4280.74, -1085.65, -65951.10, -25610.43, -56029.52, -24366.28, -36150.01, 0.00, 0.00, 0.00, 0, -1
137, 8044.46, 4566.51, -2319.31, -65667.26, -25326.22, -55748.58, -24102.62, -35892.18, 0.00, 0.86, 0.51, 0, -1
138, 8061.45, 4535.35, -3253.16, -65764.06, -25275.31, -55794.58, -24030.47, -36038.10, 0.00, 0.00, 0.00, 0, -1
139, 7791.66, 4263.60, -2072.81, -66026.09, -25553.29, -56060.83, -24288.08, -36266.93, 0.00, 0.00, 0.00, 0, -1
140, 7731.07, 4237.22, -1089.80, -66012.43, -25654.59, -56078.29, -24397.69, -36206.67, 0.00, 0.00, 0.00, 0, -1
141, 7987.60, 4514.99, -2025.92, -65715.58, -25399.67, -55800.50, -24165.41, -35931.30, 0.00, 0.00, 0.00, 0, -1
142, 8086.66, 4569.64, -3282.67, -65712.38, -25254.05, -55759.75, -24002.96, -35995.02, 0.00, 0.00, 0.00, 0, -1
143, 7815.62, 4284.72, -2324.51, -66011.43, -25522.05, -56039.15, -24249.00, -36261.48, 0.00, 0.00, 0.00, 0, -1
144, 7713.72, 4219.32, -1137.12, -66025.42, -25650.39, -56096.35, -24389.42, -36226.19, 0.00, 0.00, 0.00, 0, -1
145, 7941.69, 4467.20, -1751.13, -65751.84, -25438.45, -55843.20, -24202.15, -35964.38, 0.00, 0.00, 0.00, 0, -1
146, 8096.36, 4585.24, -3217.80, -65682.68, -25248.24, -55747.28, -24005.79, -35959.51, 0.00, 0.00, 0.00, 0, -1
147, 7850.36, 4315.67, -2577.65, -65980.65, -25483.02, -56019.17, -24231.23, -36253.88, 0.01, 0.86, 0.51, 0, -1
148, 7695.24, 4189.41, -1258.49, -66077.59, -25667.18, -56132.74, -24409.71, -36284.68, 0.00, 0.00, 0.00, 0, -1
149, 7876.46, 4403.52, -1484.56, -65810.48, -25512.79, -55909.29, -24264.54, -36022.43, 0.00, 0.00, 0.00, 0, -1
150, 8113.44, 4613.13, -3071.51, -65631.58, -25257.34, -55708.17, -24017.78, -35910.47, 0.00, 0.00, 0.00, 0, -1
151, 7915.85, 4377.05, -2834.76, -65920.57, -25431.57, -55944.98, -24188.12, -36204.62, 0.00, 0.00, 0.00, 0, -1
152, 7701.00, 4192.18, -1435.43, -66081.97, -25664.59, -56127.48, -24409.04, -36300.82, 0.00, 0.00, 0.00, 0, -1
153, 7830.46, 4353.87, -1291.24, -65868.76, -25567.33, -55973.04, -24323.14, -36085.59, 0.00, 0.00, 0.00, 0, -1
154, 8105.50, 4617.29, -2861.76, -65633.41, -25272.02, -55720.57, -24040.22, -35906.13, 0.00, 0.00, 0.00, 0, -1
155, 7977.43, 4441.09, -3038.38, -65859.95, -25367.26, -55889.33, -24112.01, -36160.02, 0.00, 0.00, 0.00, 0, -1
156, 7737.30, 4216.61, -1645.94, -66068.55, -25633.29, -56104.04, -24372.52, -36300.91, 0.01, 0.86, 0.51, 0, -1
157, 7798.48, 4317.87, -1176.91, -65931.66, -25604.73, -56000.77, -24362.39, -36123.59, 0.00, 0.00, 0.00, 0, -1
158, 8072.35, 4590.56, -2613.63, -65658.88, -25314.18, -55740.64, -24092.18, -35905.82, 0.00, 0.00, 0.00, 0, -1
159, 8004.45, 4473.99, -3189.19, -65837.58, -25348.53, -55874.91, -24096.21, -36129.78, 0.00, 0.00, 0.00, 0, -1
160, 7740.77, 4219.43, -1860.27, -66068.13, -25626.83, -56112.06, -24347.78, -36307.10, 0.00, 0.00, 0.00, 0, -1
161, 7739.69, 4257.14, -1076.35, -65993.99, -25647.42, -56061.88, -24398.94, -36197.84, 0.00, 0.00, 0.00, 0, -1
162, 8024.92, 4550.90, -2287.63, -65682.48, -25356.98, -55768.98, -24116.32, -35932.98, 0.00, 0.00, 0.00, 0, -1
163, 8051.97, 4526.61, -3258.62, -65770.14, -25302.22, -55800.55, -24031.41, -36057.92, 0.00, 0.00, 0.00, 0, -1
164, 7787.26, 4261.32, -2098.00, -66042.07, -25567.62, -56063.07, -24294.60, -36283.61, 0.00, 0.00, 0.00, 0, -1
165, 7724.18, 4235.70, -1080.95, -66025.64, -25666.19, -56092.95, -24406.00, -36235.77, 0.00, 0.00, 0.00, 0, -1
166, 7967.73, 4497.91, -1973.97, -65735.12, -25431.34, -55833.58, -24189.19, -35976.67, 0.00, 0.86, 0.51, 0, -1
167, 8072.42, 4557.43, -3272.05, -65743.59, -25290.95, -55800.64, -24042.05, -36028.26, 0.00, 0.00, 0.00, 0, -1
168, 7811.89, 4279.89, -2357.26, -66023.07, -25548.40, -56065.75, -24272.12, -36291.34, 0.00, 0.00, 0.00, 0, -1
169, 7698.01, 4201.90, -1144.03, -66046.77, -25692.30, -56124.91, -24424.85, -36287.05, 0.00, 0.00, 0.00, 0, -1
170, 7926.58, 4458.35, -1716.55, -65768.77, -25477.90, -55862.17, -24238.99, -36013.96, 0.00, 0.00, 0.00, 0, -1
171, 8100.72, 4594.94, -3235.41, -65675.68, -25268.29, -55733.45, -24026.54, -35983.20, 0.00, 0.00, 0.00, 0, -1
172, 7856.82, 4325.46, -2648.77, -65976.89, -25504.10, -56007.41, -24232.11, -36280.25, 0.00, 0.00, 0.00, 0, -1
173, 7686.38, 4188.36, -1319.02, -66083.16, -25717.38, -56145.14, -24450.28, -36332.45, 0.00, 0.00, 0.00, 0, -1
174, 7844.59, 4377.95, -1499.73, -65852.71, -25560.29, -55951.02, -24320.35, -36093.42, 0.00, 0.00, 0.00, 0, -1
175, 8077.07, 4579.63, -3078.46, -65683.68, -25294.82, -55752.60, -24055.10, -35975.54, 0.00, 0.00, 0.00, 0, -1
176, 7874.65, 4335.25, -2885.07, -65970.75, -25479.80, -55996.19, -24217.71, -36272.36, 0.00, 0.86, 0.51, 0, -1
177, 7676.01, 4166.70, -1483.84, -66111.41, -25712.64, -56162.69, -24436.04, -36363.07, 0.00, 0.00, 0.00, 0, -1
178, 7785.36, 4312.01, -1300.16, -65918.11, -25613.62, -56003.72, -24362.89, -36146.88, 0.00, 0.00, 0.00, 0, -1
179, 8042.34, 4550.77, -2849.45, -65691.75, -25334.25, -55770.66, -24097.46, -35977.68, 0.00, 0.00, 0.00, 0, -1
180, 7916.16, 4376.76, -3066.12, -65921.70, -25439.35, -55960.29, -24178.73, -36247.40, 0.00, 0.00, 0.00, 0, -1
181, 7669.51, 4149.53, -1671.40, -66129.35, -25707.54, -56173.89, -24433.05, -36395.63, 0.00, 0.00, 0.00, 0, -1
182, 7723.89, 4246.23, -1156.28, -65983.35, -25683.14, -56074.49, -24424.91, -36222.50, 0.00, 0.00, 0.00, 0, -1
183, 7997.21, 4519.75, -2562.99, -65715.73, -25402.13, -55813.15, -24162.71, -35987.87, 0.00, 0.00, 0.00, 0, -1
184, 7942.67, 4411.25, -3189.17, -65887.11, -25427.79, -55938.75, -24161.41, -36214.47, 0.00, 0.00, 0.00, 0, -1
185, 7714.21, 4191.20, -1904.79, -66098.35, -25655.02, -56141.86, -24386.31, -36378.85, 0.00, 0.00, 0.00, 0, -1
186, 7689.78, 4205.79, -1090.81, -66039.99, -25687.34, -56114.37, -24445.32, -36265.64, 0.00, 0.87, 0.50, 0, -1
187, 7963.01, 4488.19, -2256.39, -65736.26, -25431.46, -55828.26, -24180.05, -36003.09, 0.00, 0.00, 0.00, 0, -1
188, 8008.56, 4480.72, -3284.50, -65811.05, -25361.99, -55857.70, -24094.33, -36135.77, 0.00, 0.00, 0.00, 0, -1
189, 7754.00, 4224.30, -2166.69, -66078.30, -25607.32, -56108.46, -24342.55, -36351.73, 0.00, 0.00, 0.00, 0, -1
190, 7675.92, 4185.88, -1134.78, -66077.86, -25715.55, -56142.15, -24452.85, -36304.68, 0.00, 0.00, 0.00, 0, -1
191, 7909.92, 4437.58, -1991.52, -65783.73, -25486.69, -55882.46, -24236.20, -36046.14, 0.00, 0.00, 0.00, 0, -1
192, 8033.51, 4517.98, -3292.14, -65763.61, -25319.63, -55815.01, -24069.92, -36087.96, 0.00, 0.00, 0.00, 0, -1
193, 7787.08, 4252.62, -2439.34, -66053.90, -25568.16, -56082.04, -24304.53, -36348.38, 0.00, 0.00, 0.00, 0, -1
194, 7644.07, 4145.38, -1193.72, -66106.78, -25740.36, -56169.13, -24480.72, -36347.33, 0.00, 0.00, 0.00, 0, -1
195, 7855.12, 4386.17, -1686.42, -65841.55, -25546.50, -55925.00, -24305.26, -36086.64, -0.00, 0.86, 0.51, 0, -1
196, 8026.71, 4521.29, -3196.77, -65744.79, -25338.47, -55811.93, -24094.76, -36071.58, 0.00, 0.00, 0.00, 0, -1
197, 7790.72, 4257.23, -2635.74, -66041.22, -25561.14, -56078.04, -24289.21, -36351.80, 0.00, 0.00, 0.00, 0, -1
198, 7621.05, 4120.72, -1290.81, -66144.27, -25768.68, -56208.96, -24487.88, -36389.06, 0.00, 0.00, 0.00, 0, -1
199, 7785.74, 4323.23, -1413.26, -65905.39, -25607.92, -56012.96, -24349.27, -36162.42, 0.00, 0.00, 0.00, 0, -1
200, 8032.26, 4543.66, -3016.95, -65717.57, -25349.58, -55797.84, -24091.42, -36032.71, 0.00, 0.00, 0.00, 0, -1
201, 7857.04, 4320.50, -2884.36, -65979.53, -25495.05, -56018.63, -24225.94, -36304.44, 0.00, 0.00, 0.00, 0, -1
202, 7627.26, 4116.65, -1472.64, -66151.13, -25739.57, -56208.62, -24466.46, -36408.80, 0.00, 0.00, 0.00, 0, -1
203, 7731.47, 4255.97, -1245.62, -65971.77, -25662.93, -56057.75, -24411.43, -36216.84, 0.00, 0.00, 0.00, 0, -1
204, 7996.65, 4512.59, -2797.99, -65732.41, -25382.62, -55803.72, -24124.01, -36024.44, 0.00, 0.00, 0.00, 0, -1
205, 7881.02, 4348.60, -3066.64, -65952.15, -25465.32, -55980.88, -24186.13, -36278.69, 0.00, 0.85, 0.50, 0, -1
206, 7653.48, 4134.76, -1697.26, -66142.79, -25715.08, -56189.63, -24433.59, -36422.64, 0.00, 0.00, 0.00, 0, -1
207, 7688.96, 4208.30, -1144.68, -66032.10, -25712.62, -56112.93, -24446.93, -36277.77, 0.00, 0.00, 0.00, 0, -1
208, 7977.78, 4500.26, -2516.36, -65734.22, -25409.98, -55824.29, -24160.94, -36027.64, 0.00, 0.00, 0.00, 0, -1
209, 7947.70, 4416.66, -3208.37, -65877.56, -25408.43, -55918.52, -24137.25, -36218.72, 0.00, 0.00, 0.00, 0, -1
210, 7678.72, 4150.18, -1928.98, -66142.45, -25697.26, -56180.30, -24410.38, -36426.59, 0.00, 0.00, 0.00, 0, -1
211, 7664.32, 4177.21, -1093.76, -66062.48, -25736.38, -56150.13, -24461.66, -36317.43, 0.00, 0.00, 0.00, 0, -1
212, 7920.90, 4447.39, -2216.73, -65777.88, -25470.79, -55877.59, -24225.45, -36067.64, 0.00, 0.00, 0.00, 0, -1
213, 7971.66, 4446.61, -3279.25, -65832.73, -25406.18, -55890.56, -24127.99, -36187.94, 0.00, 0.00, 0.00, 0, -1
214, 7716.22, 4185.81, -2184.93, -66098.62, -25661.14, -56149.23, -24371.80, -36418.28, 0.00, 0.00, 0.00, 0, -1
215, 7640.52, 4149.87, -1121.10, -66098.78, -25755.51, -56191.14, -24498.79, -36369.73, 0.00, 0.86, 0.50, 0, -1
216, 7879.15, 4405.89, -1937.92, -65823.80, -25527.23, -55937.52, -24297.20, -36102.80, 0.00, 0.00, 0.00, 0, -1
217, 7991.24, 4471.69, -3261.83, -65796.90, -25376.65, -55869.28, -24122.94, -36138.70, 0.00, 0.00, 0.00, 0, -1
218, 7734.96, 4200.74, -2428.03, -66093.16, -25621.78, -56137.72, -24344.85, -36412.89, 0.00, 0.00, 0.00, 0, -1
219, 7623.00, 4122.69, -1188.42, -66125.29, -25760.50, -56203.01, -24502.36, -36406.23, 0.00, 0.00, 0.00, 0, -1
220, 7822.69, 4348.17, -1629.62, -65856.82, -25573.64, -55969.57, -24338.75, -36147.29, 0.00, 0.00, 0.00, 0, -1
221, 8015.38, 4509.46, -3160.42, -65748.55, -25350.77, -55825.87, -24118.94, -36102.34, 0.00, 0.00, 0.00, 0, -1
222, 7812.02, 4277.70, -2695.35, -66029.09, -25538.95, -56065.93, -24274.15, -36364.79, 0.00, 0.00, 0.00, 0, -1
223, 7623.69, 4121.53, -1332.81, -66139.39, -25771.61, -56209.25, -24495.48, -36420.76, 0.00, 0.00, 0.00, 0, -1
224, 7767.92, 4298.87, -1404.20, -65920.52, -25648.34, -56030.21, -24401.78, -36210.20, 0.00, 0.00, 0.00, 0, -1
225, 8006.33, 4513.85, -2992.36, -65741.24, -25381.23, -55827.48, -24154.59, -36090.18, 0.00, 0.86, 0.50, 0, -1
226, 7834.42, 4299.31, -2901.73, -65987.06, -25516.50, -56037.43, -24267.02, -36343.69, 0.00, 0.00, 0.00, 0, -1
227, 7618.50, 4108.45, -1507.45, -66152.02, -25751.64, -56224.49, -24497.09, -36449.10, 0.00, 0.00, 0.00, 0, -1
228, 7704.51, 4230.43, -1238.20, -65988.25, -25708.39, -56100.62, -24466.46, -36271.94, 0.00, 0.00, 0.00, 0, -1
229, 7977.85, 4493.51, -2754.27, -65749.91, -25418.51, -55838.88, -24187.18, -36070.93, 0.00, 0.00, 0.00, 0, -1
230, 7886.54, 4355.91, -3097.55, -65941.91, -25474.46, -55988.35, -24216.79, -36304.42, 0.00, 0.00, 0.00, 0, -1
231, 7634.55, 4119.92, -1725.73, -66145.34, -25724.09, -56218.39, -24478.87, -36468.43, 0.00, 0.00, 0.00, 0, -1
232, 7668.01, 4193.61, -1127.89, -66031.86, -25726.83, -56137.14, -24482.80, -36313.52, 0.00, 0.00, 0.00, 0, -1
233, 7952.15, 4478.48, -2477.71, -65751.72, -25450.86, -55858.30, -24228.84, -36077.88, 0.00, 0.00, 0.00, 0, -1
234, 7931.69, 4406.09, -3225.76, -65880.55, -25443.37, -55940.13, -24199.56, -36265.28, 0.01, 0.86, 0.51, 0, -1
235, 7670.18, 4147.75, -1965.32, -66137.27, -25719.06, -56190.36, -24450.24, -36458.20, 0.00, 0.00, 0.00, 0, -1
236, 7646.55, 4162.88, -1083.08, -66070.48, -25746.55, -56169.21, -24507.44, -36355.78, 0.00, 0.00, 0.00, 0, -1
237, 7900.65, 4432.13, -2157.41, -65786.57, -25487.83, -55897.20, -24271.27, -36103.48, 0.00, 0.00, 0.00, 0, -1
238, 7959.03, 4440.67, -3262.73, -65838.05, -25395.45, -55899.45, -24173.32, -36217.60, 0.00, 0.00, 0.00, 0, -1
239, 7699.33, 4173.03, -2213.31, -66116.28, -25660.72, -56161.84, -24421.16, -36463.94, 0.00, 0.00, 0.00, 0, -1
240, 7621.68, 4133.49, -1125.45, -66111.18, -25779.07, -56206.59, -24544.81, -36434.04, 0.00, 0.00, 0.00, 0, -1
241, 7864.77, 4399.63, -1892.48, -65821.57, -25546.39, -55933.61, -24327.46, -36142.03, 0.00, 0.00, 0.00, 0, -1
242, 8001.83, 4492.25, -3258.91, -65778.30, -25379.78, -55845.38, -24151.26, -36154.10, 0.00, 0.00, 0.00, 0, -1
243, 7743.18, 4210.24, -2474.74, -66078.70, -25631.39, -56130.75, -24386.24, -36446.13, 0.00, 0.00, 0.00, 0, -1
244, 7605.05, 4110.44, -1207.93, -66143.55, -25791.88, -56232.90, -24553.55, -36449.73, 0.01, 0.85, 0.52, 0, -1
245, 7793.38, 4329.15, -1606.40, -65888.67, -25616.75, -56006.18, -24390.49, -36200.82, 0.00, 0.00, 0.00, 0, -1
246, 7975.84, 4475.33, -3128.93, -65783.20, -25393.14, -55862.64, -24180.23, -36155.42, 0.00, 0.00, 0.00, 0, -1
247, 7789.87, 4258.95, -2708.96, -66029.89, -25556.04, -56081.57, -24323.32, -36407.77, 0.00, 0.00, 0.00, 0, -1
248, 7615.57, 4115.36, -1360.73, -66143.98, -25771.20, -56230.04, -24528.11, -36461.48, 0.00, 0.00, 0.00, 0, -1
249, 7752.84, 4291.11, -1408.63, -65934.80, -25663.22, -56044.72, -24441.14, -36237.27, 0.00, 0.00, 0.00, 0, -1
250, 7990.23, 4506.29, -2967.22, -65727.67, -25382.55, -55832.06, -24180.88, -36114.36, 0.00, 0.00, 0.00, 0, -1
251, 7835.36, 4307.25, -2941.65, -65980.16, -25518.05, -56046.64, -24274.08, -36379.61, 0.00, 0.00, 0.00, 0, -1
252, 7608.42, 4105.59, -1544.35, -66154.05, -25770.60, -56240.21, -24523.10, -36489.49, 0.00, 0.00, 0.00, 0, -1
253, 7698.12, 4235.86, -1240.68, -65985.88, -25704.42, -56100.29, -24477.75, -36299.39, 0.00, 0.00, 0.00, 0, -1
254, 7970.56, 4499.34, -2733.64, -65729.95, -25402.51, -55829.78, -24193.08, -36093.24, 0.01, 0.85, 0.51, 0, -1
255, 7873.80, 4351.50, -3105.01, -65946.16, -25466.84, -55987.27, -24237.16, -36331.55, 0.00, 0.00, 0.00, 0, -1
0, 7629.14, 4119.90, -1745.56, -66157.77, -25744.04, -56220.18, -24498.56, -36496.39, 0.00, 0.00, 0.00, 0, -1
1, 7663.05, 4190.64, -1109.83, -66044.15, -25742.35, -56149.05, -24518.16, -36356.00, 0.00, 0.00, 0.00, 0, -1
2, 7936.14, 4469.30, -2425.19, -65769.65, -25468.78, -55869.28, -24250.57, -36110.40, 0.00, 0.00, 0.00, 0, -1
3, 7930.24, 4414.18, -3221.85, -65895.58, -25425.69, -55951.04, -24213.82, -36293.33, 0.00, 0.00, 0.00, 0, -1
4, 7675.83, 4160.49, -2001.62, -66139.30, -25705.98, -56209.41, -24482.67, -36506.72, 0.00, 0.00, 0.00, 0, -1
5, 7611.13, 4139.27, -1070.63, -66105.73, -25786.63, -56216.36, -24550.78, -36429.97, 0.00, 0.00, 0.00, 0, -1
6, 7879.21, 4425.02, -2097.04, -65800.25, -25515.52, -55918.63, -24291.83, -36144.27, 0.00, 0.00, 0.00, 0, -1
7, 7958.88, 4458.35, -3269.72, -65833.69, -25421.51, -55907.43, -24191.90, -36247.42, 0.00, 0.00, 0.00, 0, -1
8, 7712.83, 4202.53, -2254.31, -66105.48, -25673.06, -56178.58, -24439.13, -36498.34, 0.01, 0.86, 0.51, 0, -1
9, 7615.44, 4142.36, -1116.87, -66125.71, -25784.30, -56231.46, -24565.59, -36471.25, 0.00, 0.00, 0.00, 0, -1
10, 7863.39, 4410.89, -1837.67, -65822.55, -25546.72, -55958.93, -24344.09, -36185.53, 0.00, 0.00, 0.00, 0, -1
11, 8003.06, 4508.17, -3238.30, -65775.91, -25387.13, -55871.47, -24171.89, -36191.18, 0.00, 0.00, 0.00, 0, -1
12, 7768.44, 4254.48, -2492.91, -66055.64, -25605.53, -56126.68, -24379.74, -36447.76, 0.00, 0.00, 0.00, 0, -1
13, 7615.75, 4137.44, -1212.90, -66133.27, -25796.44, -56241.61, -24574.96, -36482.18, 0.00, 0.00, 0.00, 0, -1
14, 7795.30, 4343.68, -1566.05, -65907.23, -25646.14, -56029.43, -24441.79, -36261.26, 0.00, 0.00, 0.00, 0, -1
15, 8013.66, 4533.67, -3115.27, -65742.22, -25385.81, -55842.90, -24183.11, -36163.24, 0.00, 0.00, 0.00, 0, -1
16, 7799.71, 4283.18, -2709.90, -66022.73, -25577.59, -56107.53, -24360.05, -36464.79, 0.00, 0.00, 0.00, 0, -1
17, 7627.51, 4143.88, -1360.57, -66149.12, -25763.78, -56240.88, -24561.21, -36517.56, 0.01, 0.86, 0.51, 0, -1
18, 7748.08, 4299.87, -1340.84, -65961.60, -25693.22, -56074.47, -24481.26, -36287.70, 0.00, 0.00, 0.00, 0, -1
19, 7989.65, 4521.49, -2915.63, -65742.60, -25414.51, -55858.39, -24218.27, -36143.69, 0.00, 0.00, 0.00, 0, -1
20, 7847.47, 4332.89, -2956.17, -65986.51, -25528.35, -56058.53, -24323.77, -36413.11, 0.00, 0.00, 0.00, 0, -1
21, 7608.73, 4120.07, -1556.66, -66167.35, -25796.42, -56267.36, -24573.04, -36541.66, 0.00, 0.00, 0.00, 0, -1
22, 7698.57, 4247.79, -1203.28, -65998.48, -25730.19, -56135.33, -24527.28, -36345.95, 0.00, 0.00, 0.00, 0, -1
23, 7979.21, 4517.60, -2691.28, -65744.88, -25433.42, -55865.46, -24247.53, -36132.40, 0.00, 0.00, 0.00, 0, -1
24, 7881.54, 4370.24, -3140.78, -65955.05, -25491.63, -56027.86, -24282.80, -36378.02, 0.00, 0.00, 0.00, 0, -1
25, 7630.46, 4133.13, -1803.20, -66172.49, -25764.90, -56264.73, -24547.24, -36555.76, 0.00, 0.00, 0.00, 0, -1
26, 7634.91, 4173.12, -1115.96, -66093.08, -25795.83, -56215.39, -24605.40, -36440.02, 0.00, 0.00, 0.00, 0, -1
27, 7911.53, 4458.39, -2380.26, -65799.84, -25510.54, -55927.80, -24330.83, -36191.77, 0.01, 0.85, 0.50, 0, -1
28, 7903.71, 4403.32, -3208.24, -65918.00, -25485.93, -55995.77, -24267.80, -36357.39, 0.00, 0.00, 0.00, 0, -1
29, 7655.41, 4156.22, -2011.48, -66158.91, -25736.67, -56229.99, -24526.17, -36562.40, 0.00, 0.00, 0.00, 0, -1
30, 7630.48, 4172.71, -1091.46, -66112.13, -25801.45, -56214.88, -24611.10, -36478.29, 0.00, 0.00, 0.00, 0, -1
31, 7871.66, 4427.77, -2081.15, -65842.00, -25558.24, -55966.96, -24393.84, -36235.13, 0.00, 0.00, 0.00, 0, -1
32, 7952.35, 4459.87, -3264.38, -65846.52, -25442.70, -55946.64, -24259.67, -36317.29, 0.00, 0.00, 0.00, 0, -1
33, 7672.53, 4169.99, -2277.89, -66150.95, -25734.39, -56240.83, -24521.96, -36584.95, 0.00, 0.00, 0.00, 0, -1
34, 7577.73, 4112.30, -1125.34, -66171.48, -25841.10, -56291.64, -24651.69, -36549.39, 0.00, 0.00, 0.00, 0, -1
35, 7808.49, 4370.01, -1785.23, -65893.21, -25606.07, -56030.93, -24443.46, -36279.25, 0.00, 0.00, 0.00, 0, -1
36, 7961.83, 4481.55, -3211.03, -65835.07, -25426.31, -55929.36, -24253.77, -36281.13, 0.00, 0.00, 0.00, 0, -1
37, 7720.87, 4215.38, -2519.31, -66129.34, -25658.97, -56198.23, -24469.37, -36561.37, 0.01, 0.85, 0.51, 0, -1
38, 7574.54, 4102.57, -1220.70, -66206.38, -25836.80, -56312.18, -24653.84, -36584.17, 0.00, 0.00, 0.00, 0, -1
39, 7762.25, 4319.09, -1542.63, -65942.29, -25676.19, -56082.56, -24518.68, -36330.37, 0.00, 0.00, 0.00, 0, -1
40, 7982.23, 4507.10, -3107.97, -65784.73, -25422.61, -55901.20, -24245.76, -36227.75, 0.00, 0.00, 0.00, 0, -1
41, 7758.74, 4246.29, -2773.67, -66093.81, -25610.31, -56167.77, -24405.47, -36526.48, 0.00, 0.00, 0.00, 0, -1
42, 7584.19, 4101.28, -1387.91, -66206.38, -25802.27, -56304.09, -24608.42, -36590.07, 0.00, 0.00, 0.00, 0, -1
43, 7706.61, 4263.28, -1323.47, -66006.76, -25704.42, -56139.62, -24528.49, -36370.69, 0.00, 0.00, 0.00, 0, -1
44, 7941.98, 4479.40, -2889.77, -65793.38, -25453.92, -55926.10, -24283.13, -36232.45, 0.00, 0.00, 0.00, 0, -1
45, 7811.71, 4304.01, -2979.64, -66029.42, -25569.05, -56108.62, -24366.20, -36481.22, 0.00, 0.00, 0.00, 0, -1
46, 7598.23, 4111.29, -1581.36, -66194.17, -25811.03, -56287.88, -24599.46, -36591.79, 0.01, 0.86, 0.51, 0, -1
47, 7668.95, 4223.00, -1184.17, -66033.89, -25732.04, -56171.23, -24569.33, -36411.08, 0.00, 0.00, 0.00, 0, -1
48, 7921.26, 4468.29, -2643.74, -65800.96, -25483.09, -55930.14, -24323.17, -36215.28, 0.00, 0.00, 0.00, 0, -1
49, 7838.89, 4333.31, -3141.49, -65995.96, -25534.81, -56075.81, -24346.66, -36451.00, 0.00, 0.00, 0.00, 0, -1
50, 7593.94, 4105.48, -1799.76, -66193.46, -25777.91, -56296.55, -24584.88, -36608.11, 0.00, 0.00, 0.00, 0, -1
51, 7613.25, 4161.67, -1098.19, -66085.79, -25791.97, -56229.52, -24616.33, -36465.95, 0.00, 0.00, 0.00, 0, -1
52, 7885.49, 4438.99, -2340.32, -65805.19, -25519.54, -55954.35, -24369.46, -36215.70, 0.00, 0.00, 0.00, 0, -1
53, 7896.83, 4401.42, -3231.97, -65927.63, -25488.01, -56017.14, -24306.16, -36393.54, 0.00, 0.00, 0.00, 0, -1
54, 7628.96, 4128.08, -2044.69, -66189.30, -25768.28, -56278.16, -24572.17, -36606.73, 0.00, 0.00, 0.00, 0, -1
55, 7578.34, 4122.02, -1078.65, -66158.16, -25834.12, -56275.01, -24673.04, -36531.29, 0.00, 0.00, 0.00, 0, -1
56, 7827.18, 4388.45, -2020.26, -65861.23, -25593.28, -56004.66, -24438.66, -36265.30, 0.01, 0.85, 0.51, 0, -1
57, 7908.74, 4422.81, -3240.24, -65891.24, -25473.72, -55986.47, -24291.38, -36345.19, 0.00, 0.00, 0.00, 0, -1
58, 7652.99, 4151.61, -2294.99, -66186.77, -25724.20, -56260.88, -24543.82, -36609.52, 0.00, 0.00, 0.00, 0, -1
59, 7548.54, 4084.76, -1145.64, -66208.68, -25863.45, -56309.77, -24687.54, -36585.49, 0.00, 0.00, 0.00, 0, -1
60, 7761.08, 4326.05, -1758.79, -65928.03, -25644.20, -56058.55, -24484.35, -36309.16, 0.00, 0.00, 0.00, 0, -1
61, 7941.08, 4464.18, -3211.79, -65827.43, -25431.46, -55943.64, -24274.57, -36290.56, 0.00, 0.00, 0.00, 0, -1
62, 7693.72, 4191.40, -2564.82, -66146.48, -25692.88, -56231.55, -24512.31, -36607.46, 0.00, 0.00, 0.00, 0, -1
63, 7538.71, 4069.67, -1266.18, -66246.12, -25867.88, -56357.46, -24705.25, -36660.26, 0.00, 0.00, 0.00, 0, -1
64, 7720.87, 4285.59, -1501.12, -65981.01, -25698.69, -56124.56, -24552.18, -36383.74, 0.00, 0.00, 0.00, 0, -1
65, 7953.15, 4489.93, -3075.09, -65806.69, -25434.23, -55925.79, -24294.65, -36261.64, 0.00, 0.00, 0.00, 0, -1
66, 7752.68, 4252.98, -2806.84, -66072.80, -25620.40, -56167.36, -24443.51, -36539.00, 0.01, 0.86, 0.51, 0, -1
67, 7541.81, 4069.60, -1424.39, -66224.62, -25846.91, -56339.29, -24660.28, -36625.19, 0.00, 0.00, 0.00, 0, -1
68, 7647.16, 4214.76, -1304.85, -66049.67, -25774.60, -56188.57, -24608.64, -36435.84, 0.00, 0.00, 0.00, 0, -1
69, 7934.96, 4483.58, -2855.06, -65803.73, -25470.50, -55925.89, -24307.57, -36245.77, 0.00, 0.00, 0.00, 0, -1
70, 7795.35, 4296.03, -2997.55, -66040.62, -25562.17, -56117.47, -24385.19, -36512.16, 0.00, 0.00, 0.00, 0, -1
71, 7569.75, 4093.90, -1617.28, -66222.74, -25806.21, -56314.75, -24648.59, -36646.22, 0.00, 0.00, 0.00, 0, -1
72, 7620.89, 4189.05, -1185.16, -66083.24, -25812.93, -56220.04, -24637.63, -36479.23, 0.00, 0.00, 0.00, 0, -1
73, 7878.74, 4438.03, -2607.44, -65814.28, -25550.10, -55961.99, -24372.16, -36259.69, 0.00, 0.00, 0.00, 0, -1
74, 7834.60, 4340.40, -3166.75, -65984.59, -25532.69, -56069.77, -24371.69, -36462.38, 0.00, 0.00, 0.00, 0, -1
75, 7585.04, 4105.68, -1867.98, -66215.88, -25788.71, -56300.93, -24619.37, -36637.12, 0.00, 0.00, 0.00, 0, -1
76, 7560.88, 4122.96, -1124.40, -66141.89, -25848.85, -56277.96, -24675.97, -36531.31, 0.01, 0.86, 0.51, 0, -1
77, 7834.87, 4404.99, -2331.11, -65861.85, -25569.99, -55993.78, -24424.55, -36275.74, 0.00, 0.00, 0.00, 0, -1
78, 7864.42, 4387.16, -3279.58, -65958.56, -25497.17, -56027.66, -24344.31, -36414.28, 0.00, 0.00, 0.00, 0, -1
79, 7605.29, 4126.98, -2115.12, -66211.38, -25763.42, -56285.20, -24602.21, -36646.98, 0.00, 0.00, 0.00, 0, -1
80, 7549.84, 4111.36, -1118.79, -66206.83, -25857.21, -56302.50, -24705.03, -36585.69, 0.00, 0.00, 0.00, 0, -1
81, 7795.46, 4378.77, -2022.43, -65901.86, -25625.42, -56036.18, -24482.20, -36305.20, 0.00, 0.00, 0.00, 0, -1
82, 7884.42, 4421.51, -3272.59, -65899.63, -25503.21, -56006.38, -24344.85, -36381.33, 0.00, 0.00, 0.00, 0, -1
83, 7608.91, 4134.09, -2356.59, -66219.59, -25780.21, -56290.25, -24603.71, -36661.13, 0.00, 0.00, 0.00, 0, -1
84, 7505.04, 4067.82, -1164.44, -66243.51, -25897.15, -56338.15, -24733.19, -36614.13, 0.00, 0.00, 0.00, 0, -1
85, 7740.77, 4331.61, -1720.99, -65946.16, -25648.76, -56071.16, -24514.97, -36331.04, 0.01, 0.86, 0.51, 0, -1
86, 7907.71, 4462.48, -3209.29, -65879.44, -25453.90, -55953.50, -24305.78, -36307.59, 0.00, 0.00, 0.00, 0, -1
87, 7674.90, 4200.27, -2610.06, -66163.98, -25687.61, -56211.44, -24520.09, -36586.90, 0.00, 0.00, 0.00, 0, -1
88, 7509.69, 4064.64, -1306.95, -66261.68, -25890.45, -56346.42, -24732.21, -36635.69, 0.00, 0.00, 0.00, 0, -1
89, 7687.14, 4274.23, -1517.17, -66025.53, -25714.74, -56132.40, -24588.04, -36386.16, 0.00, 0.00, 0.00, 0, -1
90, 7908.74, 4470.93, -3091.76, -65827.59, -25484.07, -55941.21, -24346.99, -36281.24, 0.00, 0.00, 0.00, 0, -1
91, 7724.36, 4248.78, -2889.32, -66086.22, -25643.17, -56167.74, -24478.49, -36557.53, 0.00, 0.00, 0.00, 0, -1
92, 7506.41, 4059.10, -1490.24, -66260.16, -25872.57, -56346.15, -24709.81, -36659.56, 0.00, 0.00, 0.00, 0, -1
93, 7621.68, 4207.31, -1324.70, -66072.67, -25801.56, -56189.96, -24651.65, -36460.88, 0.00, 0.00, 0.00, 0, -1
94, 7889.00, 4461.77, -2874.21, -65844.08, -25515.23, -55949.77, -24373.62, -36279.11, 0.00, 0.00, 0.00, 0, -1
95, 7750.27, 4278.32, -3069.81, -66074.98, -25612.17, -56148.12, -24458.22, -36545.28, 0.01, 0.86, 0.51, 0, -1
96, 7530.10, 4078.48, -1693.68, -66261.66, -25859.96, -56343.00, -24692.84, -36667.16, 0.00, 0.00, 0.00, 0, -1
97, 7582.14, 4173.07, -1197.92, -66120.19, -25831.53, -56233.77, -24677.53, -36485.69, 0.00, 0.00, 0.00, 0, -1
98, 7855.83, 4442.95, -2607.76, -65851.73, -25552.22, -55966.31, -24417.80, -36271.02, 0.00, 0.00, 0.00, 0, -1
99, 7795.66, 4323.74, -3223.95, -66043.13, -25584.03, -56097.89, -24424.58, -36496.31, 0.00, 0.00, 0.00, 0, -1
100, 7561.62, 4084.42, -1943.71, -66275.47, -25856.77, -56344.32, -24689.87, -36692.20, 0.00, 0.00, 0.00, 0, -1
101, 7568.95, 4124.25, -1172.84, -66195.65, -25900.24, -56318.48, -24748.90, -36591.17, 0.00, 0.00, 0.00, 0, -1
102, 7847.79, 4420.33, -2335.98, -65889.68, -25599.45, -56024.00, -24476.30, -36319.15, 0.00, 0.00, 0.00, 0, -1
103, 7845.80, 4374.95, -3317.94, -65982.15, -25531.19, -56052.21, -24386.40, -36454.11, 0.00, 0.00, 0.00, 0, -1
104, 7568.68, 4094.97, -2191.97, -66229.70, -25801.67, -56308.69, -24644.68, -36685.83, 0.00, 0.00, 0.00, 0, -1
105, 7496.13, 4063.30, -1159.99, -66220.93, -25900.93, -56325.72, -24754.49, -36623.11, 0.01, 0.86, 0.51, 0, -1
106, 7744.92, 4334.58, -2040.58, -65926.27, -25652.45, -56046.71, -24514.77, -36341.41, 0.00, 0.00, 0.00, 0, -1
107, 7852.68, 4399.27, -3352.29, -65916.05, -25502.58, -55989.64, -24348.56, -36386.92, 0.00, 0.00, 0.00, 0, -1
108, 7566.02, 4096.36, -2461.69, -66221.53, -25782.65, -56285.25, -24614.88, -36675.84, 0.00, 0.00, 0.00, 0, -1
109, 7444.70, 4009.37, -1256.82, -66248.65, -25923.53, -56357.95, -24765.93, -36664.91, 0.00, 0.00, 0.00, 0, -1
110, 7655.11, 4250.21, -1779.22, -65991.65, -25732.33, -56112.15, -24590.45, -36392.46, 0.00, 0.00, 0.00, 0, -1
111, 7829.75, 4387.40, -3273.88, -65890.02, -25529.38, -55987.00, -24375.87, -36377.89, 0.00, 0.00, 0.00, 0, -1
112, 7603.73, 4128.90, -2714.11, -66176.88, -25732.42, -56233.59, -24559.58, -36650.20, 0.00, 0.00, 0.00, 0, -1
113, 7458.80, 4014.91, -1399.73, -66265.74, -25918.05, -56352.43, -24746.55, -36682.79, 0.00, 0.00, 0.00, 0, -1
114, 7605.92, 4194.95, -1551.77, -66047.03, -25788.57, -56171.59, -24630.37, -36449.30, 0.00, 0.00, 0.00, 0, -1
115, 7835.11, 4401.91, -3120.88, -65877.02, -25532.64, -55975.85, -24378.53, -36341.30, 0.01, 0.87, 0.51, 0, -1
116, 7653.01, 4178.84, -2961.87, -66149.25, -25705.76, -56210.86, -24534.30, -36631.58, 0.00, 0.00, 0.00, 0, -1
117, 7443.22, 3992.20, -1563.62, -66310.16, -25935.67, -56394.05, -24771.14, -36734.33, 0.00, 0.00, 0.00, 0, -1
118, 7560.10, 4147.12, -1364.89, -66117.51, -25844.09, -56230.93, -24686.09, -36516.02, 0.00, 0.00, 0.00, 0, -1
119, 7813.14, 4388.34, -2893.90, -65892.13, -25577.03, -56001.27, -24423.41, -36342.37, 0.00, 0.00, 0.00, 0, -1
120, 7697.65, 4227.18, -3131.05, -66122.56, -25656.05, -56178.11, -24484.30, -36596.89, 0.00, 0.00, 0.00, 0, -1
121, 7460.81, 4006.51, -1755.82, -66315.63, -25916.80, -56397.94, -24749.91, -36753.24, 0.00, 0.00, 0.00, 0, -1
122, 7509.69, 4093.07, -1229.32, -66173.81, -25906.14, -56305.18, -24763.59, -36601.61, 0.00, 0.00, 0.00, 0, -1
123, 7788.33, 4370.44, -2616.54, -65898.57, -25613.96, -56014.95, -24468.54, -36340.54, 0.00, 0.00, 0.00, 0, -1
124, 7740.05, 4271.95, -3264.49, -66054.74, -25621.20, -56115.89, -24451.02, -36535.76, 0.01, 0.87, 0.50, 0, -1
125, 7479.12, 4017.03, -1982.51, -66301.33, -25899.77, -56365.22, -24727.98, -36742.49, 0.00, 0.00, 0.00, 0, -1
126, 7474.83, 4052.06, -1176.73, -66220.21, -25936.00, -56327.76, -24774.05, -36630.95, 0.00, 0.00, 0.00, 0, -1
127, 7733.48, 4323.25, -2322.06, -65939.84, -25682.13, -56053.17, -24534.75, -36373.64, 0.00, 0.00, 0.00, 0, -1
128, 7770.09, 4311.38, -3357.61, -66004.45, -25603.39, -56075.18, -24437.54, -36498.81, 0.00, 0.00, 0.00, 0, -1
129, 7514.25, 4052.06, -2273.13, -66269.27, -25858.08, -56329.79, -24673.89, -36725.39, 0.00, 0.00, 0.00, 0, -1
130, 7442.66, 4021.24, -1230.22, -66269.16, -25963.85, -56356.48, -24788.73, -36675.12, 0.00, 0.00, 0.00, 0, -1
131, 7662.24, 4257.25, -2030.37, -65996.07, -25751.53, -56116.15, -24600.66, -36427.80, 0.00, 0.00, 0.00, 0, -1
132, 7775.72, 4324.41, -3346.41, -65972.00, -25600.90, -56059.94, -24447.51, -36476.61, 0.00, 0.00, 0.00, 0, -1
133, 7527.64, 4058.27, -2495.51, -66258.68, -25851.80, -56332.81, -24671.05, -36750.34, 0.00, 0.00, 0.00, 0, -1
134, 7413.87, 3979.91, -1284.49, -66301.66, -26000.17, -56414.04, -24819.24, -36743.00, 0.01, 0.87, 0.51, 0, -1
135, 7603.19, 4201.03, -1743.46, -66040.64, -25830.28, -56192.71, -24671.05, -36491.14, 0.00, 0.00, 0.00, 0, -1
136, 7809.30, 4368.40, -3270.78, -65918.78, -25600.93, -56040.05, -24439.08, -36437.84, 0.00, 0.00, 0.00, 0, -1
137, 7589.40, 4116.99, -2777.81, -66206.73, -25804.24, -56288.91, -24616.06, -36720.25, 0.00, 0.00, 0.00, 0, -1
138, 7421.18, 3977.78, -1431.38, -66314.05, -26001.16, -56412.79, -24812.92, -36755.83, 0.00, 0.00, 0.00, 0, -1
139, 7573.62, 4164.89, -1546.54, -66078.62, -25879.81, -56217.92, -24705.81, -36520.11, 0.00, 0.00, 0.00, 0, -1
140, 7797.50, 4369.01, -3117.53, -65901.12, -25633.22, -56025.29, -24464.92, -36414.32, 0.00, 0.00, 0.00, 0, -1
141, 7614.23, 4143.57, -2998.13, -66180.67, -25786.11, -56250.93, -24594.03, -36685.94, 0.00, 0.00, 0.00, 0, -1
142, 7405.83, 3961.82, -1605.77, -66331.41, -26014.66, -56427.74, -24806.55, -36769.25, 0.00, 0.00, 0.00, 0, -1
143, 7502.61, 4096.09, -1351.41, -66143.48, -25945.41, -56295.84, -24756.88, -36571.75, 0.00, 0.00, 0.00, 0, -1
144, 7778.43, 4359.62, -2876.36, -65899.49, -25656.05, -56032.40, -24488.46, -36378.22, 0.01, 0.86, 0.51, 0, -1
145, 7668.50, 4202.55, -3183.38, -66111.63, -25736.49, -56184.30, -24552.32, -36622.19, 0.00, 0.00, 0.00, 0, -1
146, 7428.24, 3976.69, -1822.92, -66317.35, -25987.46, -56398.68, -24787.32, -36770.29, 0.00, 0.00, 0.00, 0, -1
147, 7461.88, 4050.18, -1245.93, -66207.74, -25988.08, -56324.41, -24797.22, -36630.08, 0.00, 0.00, 0.00, 0, -1
148, 7735.98, 4324.28, -2598.66, -65935.56, -25707.39, -56054.60, -24537.99, -36398.50, 0.00, 0.00, 0.00, 0, -1
149, 7706.34, 4242.05, -3305.80, -66078.39, -25693.64, -56145.90, -24506.54, -36585.04, 0.00, 0.00, 0.00, 0, -1
150, 7445.68, 3990.86, -2043.26, -66330.90, -25967.83, -56397.67, -24776.13, -36785.58, 0.00, 0.00, 0.00, 0, -1
151, 7426.23, 4012.23, -1186.05, -66262.84, -26025.10, -56374.81, -24835.60, -36683.84, 0.00, 0.00, 0.00, 0, -1
152, 7688.46, 4288.50, -2281.98, -65974.70, -25757.61, -56097.78, -24580.82, -36423.22, 0.00, 0.00, 0.00, 0, -1
153, 7737.12, 4286.86, -3364.03, -66039.39, -25673.55, -56109.96, -24479.18, -36536.94, 0.00, 0.00, 0.00, 0, -1
154, 7474.18, 4014.55, -2283.72, -66318.48, -25944.50, -56378.68, -24734.26, -36780.00, 0.00, 0.86, 0.51, 0, -1
155, 7405.09, 3986.63, -1219.44, -66300.70, -26054.36, -56405.61, -24845.19, -36723.91, 0.00, 0.00, 0.00, 0, -1
156, 7627.67, 4230.60, -1989.24, -66030.85, -25839.11, -56156.88, -24653.91, -36464.55, 0.00, 0.00, 0.00, 0, -1
157, 7750.67, 4308.16, -3346.37, -66007.91, -25678.64, -56088.17, -24494.52, -36506.63, 0.00, 0.00, 0.00, 0, -1
158, 7497.53, 4039.05, -2547.07, -66293.48, -25924.65, -56355.70, -24723.08, -36778.92, 0.00, 0.00, 0.00, 0, -1
159, 7391.59, 3968.13, -1325.21, -66320.66, -26055.27, -56420.41, -24857.04, -36761.53, 0.00, 0.00, 0.00, 0, -1
160, 7588.22, 4192.65, -1764.16, -66061.52, -25873.69, -56199.17, -24697.40, -36520.69, 0.00, 0.00, 0.00, 0, -1
161, 7770.45, 4342.99, -3297.78, -65947.79, -25656.47, -56052.96, -24475.90, -36462.96, 0.00, 0.00, 0.00, 0, -1
162, 7549.86, 4089.77, -2837.04, -66234.97, -25859.60, -56302.68, -24650.71, -36735.31, 0.00, 0.00, 0.00, 0, -1
163, 7372.97, 3941.86, -1480.31, -66344.05, -26064.46, -56439.92, -24859.81, -36791.84, 0.00, 0.86, 0.50, 0, -1
164, 7526.79, 4131.43, -1558.74, -66122.20, -25936.65, -56240.30, -24772.37, -36558.89, 0.00, 0.00, 0.00, 0, -1
165, 7763.30, 4343.68, -3143.08, -65930.27, -25677.19, -56044.72, -24497.69, -36434.57, 0.00, 0.00, 0.00, 0, -1
166, 7594.63, 4133.35, -3070.55, -66181.50, -25816.58, -56263.81, -24608.40, -36706.21, 0.00, 0.00, 0.00, 0, -1
167, 7379.58, 3941.10, -1676.25, -66350.95, -26065.98, -56451.83, -24847.63, -36814.30, 0.00, 0.00, 0.00, 0, -1
168, 7472.03, 4072.51, -1376.49, -66176.34, -26002.28, -56311.57, -24809.79, -36623.76, 0.00, 0.00, 0.00, 0, -1
169, 7738.13, 4329.47, -2890.46, -65932.08, -25726.77, -56051.07, -24552.14, -36423.93, 0.00, 0.00, 0.00, 0, -1
170, 7631.09, 4172.51, -3232.87, -66145.16, -25790.60, -56220.43, -24591.99, -36662.74, 0.00, 0.00, 0.00, 0, -1
171, 7402.14, 3954.54, -1878.82, -66352.05, -26045.30, -56437.80, -24832.97, -36816.70, 0.00, 0.00, 0.00, 0, -1
172, 7432.13, 4024.92, -1277.45, -66240.22, -26045.62, -56359.25, -24834.60, -36670.72, 0.00, 0.00, 0.00, 0, -1
173, 7713.01, 4309.51, -2600.76, -65957.96, -25765.62, -56081.80, -24571.07, -36429.03, 0.01, 0.86, 0.51, 0, -1
174, 7703.46, 4247.90, -3380.50, -66072.47, -25741.70, -56157.66, -24539.69, -36604.64, 0.00, 0.00, 0.00, 0, -1
175, 7448.70, 3996.49, -2150.33, -66316.98, -26004.35, -56397.56, -24792.26, -36808.63, 0.00, 0.00, 0.00, 0, -1
176, 7418.99, 4008.36, -1276.22, -66254.08, -26063.79, -56375.48, -24855.27, -36711.60, 0.00, 0.00, 0.00, 0, -1
177, 7667.27, 4275.11, -2344.94, -65971.48, -25818.52, -56105.63, -24620.13, -36449.37, 0.00, 0.00, 0.00, 0, -1
178, 7717.81, 4275.17, -3457.37, -66024.97, -25732.71, -56121.03, -24524.58, -36569.31, 0.00, 0.00, 0.00, 0, -1
179, 7450.22, 3997.59, -2402.19, -66312.04, -25998.47, -56395.17, -24782.25, -36820.79, 0.00, 0.00, 0.00, 0, -1
180, 7347.82, 3933.97, -1273.69, -66334.77, -26138.15, -56455.23, -24932.43, -36802.39, 0.00, 0.00, 0.00, 0, -1
181, 7590.83, 4202.17, -2012.64, -66031.55, -25893.02, -56185.11, -24701.89, -36520.60, 0.00, 0.00, 0.00, 0, -1
182, 7727.58, 4295.63, -3401.40, -65989.14, -25727.01, -56111.39, -24528.38, -36542.15, 0.00, 0.00, 0.00, 0, -1
183, 7489.85, 4034.06, -2637.71, -66276.41, -25964.48, -56377.33, -24748.63, -36810.33, 0.00, 0.86, 0.51, 0, -1
184, 7354.24, 3933.73, -1363.93, -66332.04, -26127.13, -56458.96, -24902.39, -36800.16, 0.00, 0.00, 0.00, 0, -1
185, 7545.35, 4155.10, -1749.78, -66077.37, -25956.05, -56236.25, -24752.97, -36556.63, 0.00, 0.00, 0.00, 0, -1
186, 7750.49, 4331.75, -3293.33, -65942.88, -25727.59, -56065.08, -24517.72, -36487.99, 0.00, 0.00, 0.00, 0, -1
187, 7543.53, 4091.67, -2873.12, -66221.38, -25910.50, -56300.89, -24693.47, -36766.54, 0.00, 0.00, 0.00, 0, -1
188, 7363.40, 3942.67, -1511.96, -66338.97, -26109.34, -56443.90, -24890.66, -36827.22, 0.00, 0.00, 0.00, 0, -1
189, 7495.50, 4108.88, -1536.37, -66128.17, -26004.73, -56270.63, -24802.14, -36612.34, 0.00, 0.00, 0.00, 0, -1
190, 7733.28, 4326.09, -3114.11, -65936.39, -25740.60, -56063.07, -24547.04, -36477.13, 0.00, 0.00, 0.00, 0, -1
191, 7573.87, 4123.25, -3093.55, -66193.64, -25882.74, -56279.32, -24663.12, -36759.10, 0.00, 0.00, 0.00, 0, -1
192, 7357.28, 3927.49, -1690.62, -66365.86, -26123.89, -56472.11, -24909.65, -36884.31, 0.00, 0.86, 0.50, 0, -1
193, 7427.86, 4036.70, -1354.99, -66207.90, -26079.68, -56341.28, -24870.16, -36685.09, 0.00, 0.00, 0.00, 0, -1
194, 7685.96, 4287.62, -2846.49, -65965.47, -25800.71, -56093.31, -24589.76, -36475.18, 0.00, 0.00, 0.00, 0, -1
195, 7613.99, 4167.01, -3261.28, -66140.84, -25830.99, -56225.41, -24597.87, -36695.39, 0.00, 0.00, 0.00, 0, -1
196, 7373.06, 3937.93, -1909.11, -66353.09, -26088.08, -56444.66, -24844.43, -36856.95, 0.00, 0.00, 0.00, 0, -1
197, 7381.51, 3985.41, -1261.60, -66260.05, -26109.72, -56385.09, -24883.88, -36732.32, 0.00, 0.00, 0.00, 0, -1
198, 7660.37, 4269.85, -2572.13, -65969.96, -25819.88, -56106.18, -24615.84, -36487.28, 0.00, 0.00, 0.00, 0, -1
199, 7648.12, 4207.98, -3390.22, -66088.43, -25798.72, -56182.80, -24582.76, -36666.11, 0.00, 0.00, 0.00, 0, -1
200, 7378.04, 3939.81, -2147.60, -66354.30, -26081.56, -56446.69, -24858.67, -36886.43, 0.00, 0.00, 0.00, 0, -1
201, 7362.04, 3962.96, -1243.34, -66289.46, -26132.70, -56419.20, -24910.39, -36773.91, 0.00, 0.00, 0.00, 0, -1
202, 7627.55, 4245.11, -2288.04, -65987.06, -25876.50, -56140.98, -24665.06, -36496.24, -0.00, 0.86, 0.50, 0, -1
203, 7685.47, 4256.31, -3445.05, -66032.20, -25784.90, -56140.36, -24567.38, -36605.16, 0.00, 0.00, 0.00, 0, -1
204, 7415.73, 3974.61, -2412.33, -66321.24, -26051.70, -56413.27, -24820.16, -36867.59, 0.00, 0.00, 0.00, 0, -1
205, 7323.24, 3918.22, -1271.77, -66334.50, -26166.16, -56463.21, -24945.71, -36837.26, 0.00, 0.00, 0.00, 0, -1
206, 7552.70, 4170.68, -1968.27, -66045.94, -25942.86, -56200.29, -24740.63, -36558.31, 0.00, 0.00, 0.00, 0, -1
207, 7691.32, 4267.31, -3382.91, -66007.63, -25773.59, -56115.73, -24561.79, -36577.27, 0.00, 0.00, 0.00, 0, -1
208, 7450.24, 4003.18, -2644.66, -66298.94, -26012.02, -56390.34, -24784.87, -36859.07, 0.00, 0.00, 0.00, 0, -1
209, 7314.79, 3901.47, -1364.75, -66360.83, -26171.81, -56490.90, -24951.95, -36872.60, 0.00, 0.00, 0.00, 0, -1
210, 7507.17, 4124.88, -1716.03, -66106.20, -25995.50, -56261.46, -24797.22, -36614.50, 0.00, 0.00, 0.00, 0, -1
211, 7704.62, 4291.60, -3283.83, -65972.60, -25769.79, -56102.32, -24575.61, -36542.91, 0.00, 0.00, 0.00, 0, -1
212, 7496.01, 4047.23, -2906.78, -66254.41, -25954.42, -56354.16, -24738.66, -36833.48, 0.00, 0.86, 0.51, 0, -1
213, 7307.52, 3889.70, -1526.83, -66376.56, -26171.23, -56505.88, -24949.96, -36901.95, 0.00, 0.00, 0.00, 0, -1
214, 7438.50, 4054.58, -1494.15, -66174.15, -26075.57, -56331.04, -24872.89, -36687.19, 0.00, 0.00, 0.00, 0, -1
215, 7707.02, 4301.84, -3092.45, -65945.22, -25793.26, -56088.55, -24592.37, -36517.23, 0.00, 0.00, 0.00, 0, -1
216, 7546.93, 4097.41, -3143.91, -66195.83, -25909.98, -56301.52, -24688.98, -36788.98, 0.00, 0.00, 0.00, 0, -1
217, 7315.79, 3884.26, -1730.87, -66379.94, -26156.28, -56506.44, -24939.85, -36923.74, 0.00, 0.00, 0.00, 0, -1
218, 7381.91, 3985.52, -1357.31, -66234.05, -26126.39, -56389.96, -24921.66, -36749.38, 0.00, 0.00, 0.00, 0, -1
219, 7652.97, 4248.75, -2832.03, -65973.43, -25839.87, -56133.30, -24641.86, -36546.53, 0.00, 0.00, 0.00, 0, -1
220, 7565.64, 4109.90, -3301.55, -66166.17, -25901.42, -56279.54, -24682.94, -36790.88, 0.00, 0.00, 0.00, 0, -1
221, 7328.33, 3882.99, -1959.22, -66382.27, -26152.46, -56492.04, -24916.20, -36938.74, 0.00, 0.00, 0.00, 0, -1
222, 7349.21, 3941.46, -1292.49, -66274.64, -26163.01, -56421.32, -24941.10, -36797.03, -0.00, 0.86, 0.51, 0, -1
223, 7614.43, 4213.55, -2571.66, -66004.72, -25896.37, -56155.63, -24706.03, -36551.47, 0.00, 0.00, 0.00, 0, -1
224, 7601.76, 4150.58, -3413.16, -66131.77, -25872.28, -56237.73, -24659.25, -36709.77, 0.00, 0.00, 0.00, 0, -1
225, 7343.29, 3894.59, -2182.07, -66384.19, -26129.50, -56486.59, -24897.52, -36923.72, 0.00, 0.00, 0.00, 0, -1
226, 7302.90, 3894.93, -1243.16, -66340.94, -26200.96, -56478.99, -24969.98, -36846.54, 0.00, 0.00, 0.00, 0, -1
227, 7545.23, 4151.86, -2237.61, -66065.43, -25965.02, -56214.25, -24758.74, -36589.11, 0.00, 0.00, 0.00, 0, -1
228, 7630.73, 4190.15, -3451.49, -66085.55, -25833.77, -56188.84, -24620.42, -36664.75, 0.00, 0.00, 0.00, 0, -1
229, 7381.06, 3927.67, -2467.10, -66365.44, -26084.80, -56455.79, -24859.34, -36918.57, 0.00, 0.00, 0.00, 0, -1
230, 7284.97, 3869.31, -1308.63, -66386.27, -26223.09, -56508.80, -25004.02, -36895.62, 0.00, 0.00, 0.00, 0, -1
231, 7517.76, 4125.39, -1983.40, -66094.76, -26001.98, -56251.34, -24800.62, -36623.31, -0.00, 0.85, 0.50, 0, -1
232, 7677.67, 4245.13, -3438.30, -66018.13, -25814.68, -56148.63, -24605.00, -36614.73, 0.00, 0.00, 0.00, 0, -1
233, 7421.29, 3964.91, -2740.32, -66326.79, -26059.47, -56433.19, -24835.16, -36914.84, 0.00, 0.00, 0.00, 0, -1
234, 7275.45, 3854.33, -1422.69, -66403.03, -26228.30, -56529.71, -25012.92, -36943.63, 0.00, 0.00, 0.00, 0, -1
235, 7447.35, 4058.76, -1722.18, -66162.50, -26084.55, -56322.44, -24890.79, -36715.91, 0.00, 0.00, 0.00, 0, -1
236, 7659.23, 4239.70, -3292.21, -66009.21, -25845.30, -56150.55, -24647.45, -36610.79, 0.00, 0.00, 0.00, 0, -1
237, 7450.08, 3992.87, -2944.73, -66292.73, -26024.85, -56391.50, -24798.41, -36883.11, 0.00, 0.00, 0.00, 0, -1
238, 7247.35, 3816.60, -1534.38, -66440.80, -26259.61, -56565.40, -25041.69, -36982.28, 0.00, 0.00, 0.00, 0, -1
239, 7375.94, 3980.71, -1453.51, -66231.62, -26157.84, -56400.96, -24959.88, -36783.08, 0.00, 0.00, 0.00, 0, -1
240, 7630.37, 4221.40, -3029.69, -66017.75, -25873.84, -56163.83, -24675.61, -36618.01, 0.00, 0.00, 0.00, 0, -1
241, 7479.92, 4027.45, -3108.77, -66262.62, -25996.44, -56361.98, -24781.18, -36870.12, 0.00, 0.85, 0.51, 0, -1
242, 7266.80, 3833.91, -1710.04, -66434.23, -26238.24, -56553.53, -25013.81, -36985.77, 0.00, 0.00, 0.00, 0, -1
243, 7329.11, 3935.90, -1302.12, -66287.29, -26194.99, -56438.13, -24991.95, -36812.74, 0.00, 0.00, 0.00, 0, -1
244, 7594.79, 4195.82, -2762.70, -66039.84, -25920.85, -56184.08, -24723.53, -36608.36, 0.00, 0.00, 0.00, 0, -1
245, 7549.95, 4101.59, -3298.51, -66191.29, -25939.62, -56294.30, -24725.86, -36808.81, 0.00, 0.00, 0.00, 0, -1
246, 7297.13, 3860.84, -1960.29, -66410.88, -26209.10, -56532.70, -24979.06, -36985.77, 0.00, 0.00, 0.00, 0, -1
247, 7312.22, 3912.54, -1250.04, -66318.56, -26220.47, -56471.75, -25006.24, -36850.43, 0.00, 0.00, 0.00, 0, -1
248, 7585.38, 4190.71, -2513.48, -66031.14, -25951.51, -56193.54, -24750.44, -36597.27, 0.00, 0.00, 0.00, 0, -1
249, 7592.33, 4147.95, -3417.11, -66139.86, -25917.00, -56251.83, -24704.94, -36762.88, 0.00, 0.00, 0.00, 0, -1
250, 7314.45, 3874.54, -2199.70, -66411.50, -26186.52, -56515.69, -24966.05, -36994.01, 0.00, 0.00, 0.00, 0, -1
251, 7264.79, 3863.88, -1224.74, -66381.35, -26267.97, -56523.40, -25051.28, -36916.16, 0.00, 0.86, 0.51, 0, -1
252, 7516.13, 4132.48, -2190.05, -66075.02, -26022.03, -56252.30, -24822.88, -36639.83, 0.00, 0.00, 0.00, 0, -1
253, 7601.67, 4172.24, -3425.74, -66093.50, -25893.80, -56224.63, -24682.43, -36718.24, 0.00, 0.00, 0.00, 0, -1
254, 7349.57, 3907.15, -2456.37, -66379.09, -26148.19, -56493.52, -24923.18, -36978.37, 0.00, 0.00, 0.00, 0, -1
255, 7238.75, 3831.98, -1276.55, -66415.86, -26291.37, -56563.61, -25074.01, -36967.21, 0.00, 0.00, 0.00, 0, -1
0, 7460.59, 4078.37, -1892.75, -66128.88, -26086.18, -56304.54, -24894.19, -36699.11, 0.00, 0.00, 0.00, 0, -1
1, 7634.75, 4216.72, -3389.89, -66045.70, -25875.88, -56176.79, -24671.34, -36676.71, 0.00, 0.00, 0.00, 0, -1
2, 7381.62, 3942.07, -2714.78, -66350.23, -26121.32, -56460.48, -24890.16, -36967.53, 0.00, 0.00, 0.00, 0, -1
3, 7232.60, 3824.03, -1395.67, -66429.16, -26301.41, -56578.93, -25066.09, -36995.42, 0.00, 0.00, 0.00, 0, -1
4, 7389.11, 4011.04, -1642.07, -66209.28, -26166.45, -56386.09, -24956.55, -36769.02, 0.00, 0.00, 0.00, 0, -1
5, 7609.11, 4202.84, -3229.58, -66046.77, -25921.81, -56196.39, -24717.77, -36656.32, 0.01, 0.85, 0.51, 0, -1
6, 7427.33, 3982.70, -2948.53, -66305.02, -26083.01, -56418.28, -24856.68, -36921.64, 0.00, 0.00, 0.00, 0, -1
7, 7236.22, 3817.10, -1545.89, -66434.39, -26292.11, -56572.11, -25070.30, -36998.19, 0.00, 0.00, 0.00, 0, -1
8, 7358.73, 3976.84, -1442.13, -66230.70, -26189.11, -56406.21, -24998.14, -36790.48, 0.00, 0.00, 0.00, 0, -1
9, 7604.80, 4207.87, -3029.58, -66025.80, -25919.57, -56181.53, -24725.59, -36631.42, 0.00, 0.00, 0.00, 0, -1
10, 7470.11, 4027.31, -3136.49, -66260.23, -26022.10, -56369.49, -24802.03, -36887.15, 0.00, 0.00, 0.00, 0, -1
11, 7245.27, 3822.24, -1734.92, -66443.38, -26273.94, -56569.83, -25062.47, -37027.99, 0.00, 0.00, 0.00, 0, -1
12, 7308.15, 3920.72, -1291.73, -66308.95, -26231.80, -56463.07, -25026.31, -36849.80, 0.00, 0.00, 0.00, 0, -1
13, 7588.86, 4198.71, -2767.10, -66033.66, -25935.64, -56186.16, -24734.13, -36611.69, 0.00, 0.00, 0.00, 0, -1
14, 7529.16, 4090.03, -3327.41, -66193.84, -25958.31, -56307.11, -24739.31, -36822.26, 0.01, 0.85, 0.51, 0, -1
15, 7275.13, 3845.30, -1993.55, -66418.63, -26221.75, -56544.01, -24997.01, -37005.01, 0.00, 0.00, 0.00, 0, -1
16, 7261.46, 3870.63, -1243.56, -66344.53, -26268.91, -56515.13, -25060.24, -36907.18, 0.00, 0.00, 0.00, 0, -1
17, 7534.86, 4151.81, -2474.76, -66057.13, -25998.70, -56233.39, -24803.82, -36652.34, 0.00, 0.00, 0.00, 0, -1
18, 7549.61, 4118.80, -3415.35, -66148.64, -25947.11, -56276.08, -24745.73, -36795.20, 0.00, 0.00, 0.00, 0, -1
19, 7287.74, 3855.25, -2227.26, -66417.45, -26212.31, -56535.29, -24992.27, -37023.12, 0.00, 0.00, 0.00, 0, -1
20, 7238.10, 3842.40, -1233.21, -66382.38, -26298.19, -56541.57, -25085.07, -36952.26, 0.00, 0.00, 0.00, 0, -1
21, 7478.51, 4100.70, -2156.99, -66101.73, -26068.77, -56284.57, -24878.92, -36696.42, 0.00, 0.00, 0.00, 0, -1
22, 7595.19, 4172.62, -3437.32, -66090.59, -25920.83, -56235.71, -24723.24, -36750.54, 0.00, 0.00, 0.00, 0, -1
23, 7324.47, 3887.24, -2483.37, -66396.16, -26188.46, -56515.36, -24963.43, -37016.01, 0.00, 0.00, 0.00, 0, -1
24, 7215.88, 3816.05, -1287.37, -66426.70, -26324.47, -56574.14, -25102.66, -36995.04, 0.01, 0.85, 0.51, 0, -1
25, 7419.19, 4046.74, -1859.20, -66148.13, -26133.88, -56333.17, -24926.89, -36733.06, 0.00, 0.00, 0.00, 0, -1
26, 7599.06, 4192.38, -3363.65, -66063.04, -25934.44, -56209.88, -24722.71, -36703.57, 0.00, 0.00, 0.00, 0, -1
27, 7378.33, 3946.67, -2739.63, -66351.53, -26136.79, -56470.32, -24919.42, -36988.83, 0.00, 0.00, 0.00, 0, -1
28, 7227.12, 3817.86, -1411.18, -66425.72, -26316.45, -56580.96, -25096.81, -37015.54, 0.00, 0.00, 0.00, 0, -1
29, 7387.25, 4006.86, -1635.07, -66192.59, -26177.38, -56383.21, -24978.16, -36780.93, 0.00, 0.00, 0.00, 0, -1
30, 7602.99, 4195.11, -3233.78, -66039.68, -25942.60, -56207.37, -24753.35, -36686.12, 0.00, 0.00, 0.00, 0, -1
31, 7419.17, 3973.47, -2975.91, -66309.78, -26110.88, -56444.57, -24893.05, -36977.52, 0.00, 0.00, 0.00, 0, -1
32, 7219.08, 3798.52, -1573.09, -66462.87, -26334.45, -56621.08, -25115.38, -37069.85, 0.00, 0.00, 0.00, 0, -1
33, 7308.48, 3921.75, -1417.64, -66295.65, -26269.15, -56475.19, -25060.15, -36865.85, 0.00, 0.00, 0.00, 0, -1
34, 7578.67, 4173.43, -2997.12, -66056.38, -25985.91, -56222.84, -24773.82, -36673.80, 0.01, 0.86, 0.51, 0, -1
35, 7449.30, 4000.65, -3169.34, -66282.13, -26088.33, -56406.84, -24856.59, -36932.28, 0.00, 0.00, 0.00, 0, -1
36, 7216.24, 3784.35, -1750.83, -66470.53, -26332.12, -56620.86, -25100.18, -37084.38, 0.00, 0.00, 0.00, 0, -1
37, 7286.47, 3890.39, -1291.22, -66323.26, -26283.10, -56512.59, -25083.60, -36916.79, 0.00, 0.00, 0.00, 0, -1
38, 7550.96, 4156.15, -2735.03, -66062.61, -26011.04, -56243.38, -24836.50, -36687.88, 0.00, 0.00, 0.00, 0, -1
39, 7499.55, 4053.18, -3336.91, -66228.48, -26029.43, -56350.13, -24819.40, -36879.55, 0.00, 0.00, 0.00, 0, -1
40, 7245.79, 3805.36, -2013.87, -66466.35, -26302.35, -56591.82, -25064.96, -37066.23, 0.00, 0.00, 0.00, 0, -1
41, 7225.85, 3825.03, -1218.93, -66410.20, -26349.62, -56568.26, -25119.05, -36970.50, 0.00, 0.00, 0.00, 0, -1
42, 7506.54, 4117.88, -2428.83, -66096.50, -26065.84, -56275.36, -24859.63, -36694.99, 0.00, 0.00, 0.00, 0, -1
43, 7542.19, 4102.22, -3433.72, -66165.97, -25997.42, -56306.41, -24779.95, -36822.98, 0.00, 0.00, 0.00, 0, -1
44, 7280.48, 3835.45, -2264.95, -66431.20, -26278.54, -56579.68, -25050.29, -37065.36, 0.01, 0.86, 0.51, 0, -1
45, 7216.51, 3809.63, -1229.17, -66420.20, -26373.78, -56597.12, -25147.59, -37005.64, 0.00, 0.00, 0.00, 0, -1
46, 7456.07, 4069.09, -2109.16, -66129.55, -26134.84, -56324.18, -24921.12, -36727.34, 0.00, 0.00, 0.00, 0, -1
47, 7567.16, 4133.91, -3408.89, -66124.66, -25994.23, -56273.35, -24774.58, -36781.45, 0.00, 0.00, 0.00, 0, -1
48, 7318.05, 3863.74, -2485.72, -66418.81, -26244.54, -56541.55, -25010.35, -37054.30, 0.00, 0.00, 0.00, 0, -1
