%OpenBCI Raw EEG Data
%
%Sample Rate = 250.0 Hz
%First Column = SampleIndex
%Other Columns = EEG data in microvolts followed by Accel Data (in G) interleaved with Aux Data
%Last Two Columns = keyOutput & stageOutput in Math test.
%Key: 0/1 means key up/down. Stage: -1 not in test; 0 waiting; 1 testing; 20 answered and wrong; 21 answered and correct.
0, 6798.10, 5849.65, -39497.18, -52710.51, -36066.77, -42619.28, -31288.73, -30522.96, 0.01, 0.46, 0.18, 0, -1
1, 6813.55, 5864.11, -39586.95, -52740.10, -36061.59, -42629.20, -31300.24, -30547.37, 0.00, 0.00, 0.00, 0, -1
2, 6792.02, 5837.40, -39537.39, -52726.80, -36073.39, -42630.18, -31304.87, -30536.48, 0.00, 0.00, 0.00, 0, -1
3, 6781.27, 5825.65, -39429.53, -52688.63, -36075.29, -42618.90, -31291.59, -30505.71, 0.00, 0.00, 0.00, 0, -1
4, 6798.35, 5845.99, -39471.55, -52698.77, -36065.72, -42617.93, -31282.52, -30510.96, 0.00, 0.00, 0.00, 0, -1
5, 6816.66, 5869.19, -39565.98, -52731.65, -36057.07, -42622.61, -31291.81, -30537.82, 0.00, 0.00, 0.00, 0, -1
6, 6796.36, 5849.56, -39550.54, -52735.34, -36065.19, -42623.59, -31290.18, -30529.33, 0.04, 0.93, 0.38, 0, -1
7, 6764.51, 5814.20, -39437.77, -52708.96, -36085.53, -42626.36, -31292.64, -30509.08, 0.00, 0.00, 0.00, 0, -1
8, 6784.63, 5834.01, -39468.71, -52704.76, -36073.97, -42620.39, -31295.08, -30516.21, 0.00, 0.00, 0.00, 0, -1
9, 6802.40, 5858.53, -39565.22, -52736.79, -36062.46, -42626.50, -31303.42, -30541.60, 0.00, 0.00, 0.00, 0, -1
10, 6791.09, 5841.47, -39581.79, -52754.16, -36070.21, -42637.32, -31306.90, -30544.48, 0.00, 0.00, 0.00, 0, -1
11, 6769.18, 5812.77, -39455.81, -52709.32, -36083.11, -42632.17, -31297.96, -30513.51, 0.00, 0.00, 0.00, 0, -1
12, 6784.00, 5827.90, -39458.65, -52705.61, -36073.86, -42627.23, -31289.89, -30511.94, 0.00, 0.00, 0.00, 0, -1
13, 6815.18, 5860.58, -39548.10, -52733.26, -36061.70, -42627.43, -31290.70, -30534.25, 0.00, 0.00, 0.00, 0, -1
14, 6809.75, 5858.03, -39593.12, -52760.17, -36070.55, -42636.35, -31303.59, -30553.31, 0.00, 0.00, 0.00, 0, -1
15, 6772.56, 5820.10, -39477.16, -52723.54, -36094.16, -42643.55, -31313.90, -30538.12, 0.00, 0.00, 0.00, 0, -1
16, 6785.72, 5833.04, -39450.02, -52706.35, -36079.69, -42634.21, -31301.36, -30523.45, 0.04, 0.92, 0.37, 0, -1
17, 6808.97, 5862.01, -39528.81, -52728.08, -36068.14, -42631.35, -31302.72, -30536.19, 0.00, 0.00, 0.00, 0, -1
18, 6805.84, 5856.63, -39601.75, -52766.34, -36076.92, -42646.32, -31312.76, -30557.29, 0.00, 0.00, 0.00, 0, -1
19, 6778.35, 5819.10, -39508.83, -52733.62, -36089.26, -42641.85, -31306.19, -30529.69, 0.00, 0.00, 0.00, 0, -1
20, 6776.78, 5816.73, -39458.14, -52716.52, -36091.23, -42636.42, -31307.39, -30521.51, 0.00, 0.00, 0.00, 0, -1
21, 6798.73, 5844.58, -39525.55, -52738.18, -36077.48, -42634.25, -31308.45, -30537.64, 0.00, 0.00, 0.00, 0, -1
22, 6807.56, 5854.39, -39602.80, -52768.04, -36072.07, -42637.74, -31308.00, -30551.30, 0.00, 0.00, 0.00, 0, -1
23, 6783.06, 5824.48, -39526.04, -52742.31, -36090.85, -42639.24, -31306.32, -30530.60, 0.00, 0.00, 0.00, 0, -1
24, 6772.82, 5812.95, -39450.00, -52719.92, -36098.82, -42636.02, -31309.21, -30516.66, 0.00, 0.00, 0.00, 0, -1
25, 6799.87, 5845.54, -39509.50, -52732.10, -36084.34, -42632.31, -31313.16, -30533.69, 0.00, 0.00, 0.00, 0, -1
26, 6817.55, 5866.48, -39599.67, -52762.01, -36072.00, -42634.27, -31314.30, -30556.49, 0.03, 0.91, 0.37, 0, -1
27, 6788.22, 5837.78, -39553.94, -52749.91, -36089.04, -42640.06, -31314.30, -30541.91, 0.00, 0.00, 0.00, 0, -1
28, 6769.81, 5819.86, -39446.60, -52710.38, -36095.16, -42634.81, -31309.76, -30515.63, 0.00, 0.00, 0.00, 0, -1
29, 6789.16, 5840.91, -39492.71, -52718.82, -36084.81, -42631.05, -31317.56, -30533.42, 0.00, 0.00, 0.00, 0, -1
30, 6814.17, 5864.61, -39579.21, -52750.65, -36069.93, -42636.04, -31311.35, -30555.39, 0.00, 0.00, 0.00, 0, -1
31, 6803.20, 5849.32, -39559.61, -52748.13, -36070.30, -42636.04, -31296.60, -30542.92, 0.00, 0.00, 0.00, 0, -1
32, 6778.59, 5824.10, -39442.31, -52704.50, -36083.56, -42627.50, -31293.54, -30515.54, 0.00, 0.00, 0.00, 0, -1
33, 6790.12, 5836.96, -39468.35, -52710.33, -36078.48, -42623.03, -31295.68, -30522.29, 0.00, 0.00, 0.00, 0, -1
34, 6816.95, 5865.77, -39561.56, -52742.54, -36067.09, -42625.65, -31298.70, -30542.63, 0.00, 0.00, 0.00, 0, -1
35, 6804.47, 5849.92, -39582.93, -52757.74, -36079.83, -42638.23, -31308.18, -30547.44, 0.00, 0.00, 0.00, 0, -1
36, 6770.50, 5816.57, -39455.10, -52714.49, -36098.20, -42640.13, -31307.55, -30521.42, 0.03, 0.92, 0.37, 0, -1
37, 6785.94, 5835.66, -39457.62, -52708.12, -36086.53, -42628.60, -31301.85, -30519.61, 0.00, 0.00, 0.00, 0, -1
38, 6806.51, 5862.97, -39544.28, -52736.97, -36075.78, -42627.95, -31309.72, -30543.01, 0.00, 0.00, 0.00, 0, -1
39, 6803.65, 5855.87, -39588.69, -52756.08, -36076.86, -42632.06, -31309.72, -30551.53, 0.00, 0.00, 0.00, 0, -1
40, 6779.82, 5827.14, -39463.30, -52705.43, -36086.18, -42627.64, -31297.94, -30519.61, 0.00, 0.00, 0.00, 0, -1
41, 6791.11, 5840.85, -39439.45, -52692.43, -36078.51, -42617.91, -31293.69, -30512.12, 0.00, 0.00, 0.00, 0, -1
42, 6805.39, 5860.83, -39524.16, -52724.23, -36071.82, -42625.38, -31301.18, -30539.39, 0.00, 0.00, 0.00, 0, -1
43, 6808.48, 5861.66, -39592.67, -52759.46, -36072.79, -42641.14, -31304.49, -30559.68, 0.00, 0.00, 0.00, 0, -1
44, 6781.25, 5835.97, -39486.86, -52721.48, -36086.60, -42637.47, -31301.70, -30532.62, 0.00, 0.00, 0.00, 0, -1
45, 6779.87, 5833.67, -39435.47, -52700.96, -36089.55, -42629.85, -31304.22, -30521.39, 0.03, 0.93, 0.37, 0, -1
46, 6805.48, 5859.87, -39507.09, -52720.01, -36075.29, -42626.27, -31306.46, -30539.14, 0.00, 0.00, 0.00, 0, -1
47, 6812.32, 5867.51, -39588.56, -52758.27, -36076.23, -42640.96, -31319.42, -30564.76, 0.00, 0.00, 0.00, 0, -1
48, 6793.57, 5847.17, -39511.65, -52715.36, -36079.40, -42628.78, -31300.18, -30526.96, 0.00, 0.00, 0.00, 0, -1
49, 6779.98, 5832.55, -39434.49, -52675.75, -36078.22, -42619.72, -31289.45, -30502.17, 0.00, 0.00, 0.00, 0, -1
50, 6798.62, 5856.89, -39490.77, -52703.00, -36066.57, -42621.73, -31289.67, -30523.25, 0.00, 0.00, 0.00, 0, -1
51, 6800.38, 5860.49, -39581.94, -52765.45, -36078.06, -42644.67, -31307.60, -30564.94, 0.00, 0.00, 0.00, 0, -1
52, 6773.56, 5829.71, -39542.34, -52746.25, -36090.71, -42651.26, -31302.34, -30552.62, 0.00, 0.00, 0.00, 0, -1
53, 6782.55, 5837.25, -39435.52, -52674.88, -36074.38, -42619.59, -31277.11, -30500.05, 0.00, 0.00, 0.00, 0, -1
54, 6809.64, 5867.51, -39471.75, -52684.07, -36064.56, -42611.45, -31291.01, -30510.67, 0.00, 0.00, 0.00, 0, -1
55, 6801.05, 5860.29, -39570.21, -52756.66, -36080.12, -42646.25, -31316.38, -30565.96, 0.02, 0.93, 0.36, 0, -1
56, 6771.66, 5826.63, -39571.28, -52766.95, -36102.04, -42663.51, -31318.01, -30566.84, 0.00, 0.00, 0.00, 0, -1
57, 6776.91, 5831.99, -39447.52, -52685.16, -36083.45, -42627.86, -31287.46, -30505.57, 0.00, 0.00, 0.00, 0, -1
58, 6805.35, 5861.12, -39462.65, -52683.75, -36060.49, -42607.61, -31275.74, -30499.40, 0.00, 0.00, 0.00, 0, -1
59, 6818.76, 5875.45, -39551.21, -52737.35, -36060.31, -42624.82, -31299.01, -30542.88, 0.00, 0.00, 0.00, 0, -1
60, 6795.80, 5849.54, -39576.04, -52765.20, -36086.02, -42650.86, -31320.34, -30564.94, 0.00, 0.00, 0.00, 0, -1
61, 6775.26, 5834.65, -39451.97, -52696.89, -36085.91, -42627.28, -31296.11, -30512.79, 0.00, 0.00, 0.00, 0, -1
62, 6792.76, 5856.96, -39451.03, -52686.43, -36070.60, -42607.99, -31287.95, -30504.70, 0.00, 0.00, 0.00, 0, -1
63, 6806.20, 5866.13, -39543.61, -52733.11, -36073.79, -42627.50, -31306.88, -30550.65, 0.00, 0.00, 0.00, 0, -1
64, 6792.90, 5849.85, -39596.54, -52769.94, -36083.56, -42646.84, -31312.00, -30567.71, 0.00, 0.00, 0.00, 0, -1
65, 6774.79, 5832.20, -39474.72, -52705.43, -36088.19, -42629.98, -31291.75, -30515.76, 0.03, 0.91, 0.35, 0, -1
66, 6797.86, 5854.50, -39434.67, -52679.21, -36068.99, -42610.29, -31274.07, -30490.42, 0.00, 0.00, 0.00, 0, -1
67, 6805.59, 5862.84, -39520.05, -52726.60, -36072.20, -42628.26, -31295.59, -30531.30, 0.00, 0.00, 0.00, 0, -1
68, 6806.98, 5863.18, -39591.24, -52764.35, -36074.08, -42638.16, -31304.00, -30556.22, 0.00, 0.00, 0.00, 0, -1
69, 6780.38, 5834.23, -39493.83, -52720.19, -36090.00, -42637.32, -31302.79, -30528.84, 0.00, 0.00, 0.00, 0, -1
70, 6784.47, 5838.07, -39438.09, -52691.73, -36082.22, -42624.06, -31295.91, -30511.96, 0.00, 0.00, 0.00, 0, -1
71, 6795.80, 5854.08, -39512.27, -52721.97, -36075.51, -42627.95, -31302.34, -30538.23, 0.00, 0.00, 0.00, 0, -1
72, 6807.36, 5866.68, -39596.43, -52761.69, -36069.88, -42630.59, -31303.10, -30553.25, 0.00, 0.00, 0.00, 0, -1
73, 6789.27, 5847.13, -39516.68, -52721.13, -36071.47, -42617.11, -31285.27, -30515.32, 0.00, 0.00, 0.00, 0, -1
74, 6783.40, 5839.62, -39426.33, -52682.25, -36072.23, -42609.46, -31271.68, -30491.06, 0.00, 0.00, 0.00, 0, -1
75, 6795.04, 5856.20, -39489.96, -52707.80, -36072.85, -42621.51, -31283.43, -30519.00, 0.04, 0.92, 0.36, 0, -1
76, 6798.71, 5861.61, -39590.62, -52758.41, -36080.32, -42640.29, -31305.63, -30553.18, 0.00, 0.00, 0.00, 0, -1
77, 6781.61, 5839.95, -39546.92, -52738.36, -36085.08, -42633.65, -31300.02, -30531.10, 0.00, 0.00, 0.00, 0, -1
78, 6768.20, 5823.66, -39435.14, -52690.70, -36087.29, -42623.81, -31290.70, -30503.51, 0.00, 0.00, 0.00, 0, -1
79, 6793.48, 5855.20, -39469.58, -52695.96, -36072.00, -42615.39, -31289.31, -30511.49, 0.00, 0.00, 0.00, 0, -1
80, 6802.62, 5865.03, -39566.68, -52741.11, -36074.42, -42631.14, -31301.20, -30543.75, 0.00, 0.00, 0.00, 0, -1
81, 6791.15, 5848.38, -39556.95, -52738.31, -36077.59, -42633.56, -31298.19, -30538.43, 0.00, 0.00, 0.00, 0, -1
82, 6770.86, 5829.80, -39434.36, -52681.23, -36087.43, -42623.79, -31292.17, -30505.35, 0.00, 0.00, 0.00, 0, -1
83, 6780.47, 5845.81, -39458.38, -52688.54, -36078.35, -42622.41, -31295.99, -30518.54, 0.00, 0.00, 0.00, 0, -1
84, 6796.92, 5865.72, -39554.74, -52727.03, -36076.99, -42630.18, -31311.82, -30551.39, 0.04, 0.93, 0.36, 0, -1
85, 6788.54, 5855.78, -39581.47, -52743.61, -36083.00, -42633.78, -31303.82, -30548.08, 0.00, 0.00, 0.00, 0, -1
86, 6765.85, 5828.89, -39451.99, -52691.02, -36093.53, -42626.59, -31297.13, -30516.37, 0.00, 0.00, 0.00, 0, -1
87, 6785.23, 5846.68, -39446.80, -52683.15, -36081.41, -42621.94, -31294.52, -30515.40, 0.00, 0.00, 0.00, 0, -1
88, 6802.53, 5869.32, -39531.96, -52715.00, -36072.61, -42633.25, -31296.78, -30539.05, 0.00, 0.00, 0.00, 0, -1
89, 6799.91, 5863.89, -39586.26, -52744.37, -36075.02, -42644.31, -31302.21, -30558.16, 0.00, 0.00, 0.00, 0, -1
90, 6767.30, 5827.23, -39475.50, -52707.58, -36095.32, -42641.32, -31310.03, -30535.88, 0.00, 0.00, 0.00, 0, -1
91, 6779.13, 5838.28, -39439.25, -52690.75, -36077.21, -42624.37, -31282.32, -30511.22, 0.00, 0.00, 0.00, 0, -1
92, 6792.81, 5862.80, -39517.12, -52716.97, -36069.66, -42628.93, -31288.08, -30528.26, 0.00, 0.00, 0.00, 0, -1
93, 6807.42, 5880.83, -39579.66, -52736.10, -36062.57, -42625.54, -31293.49, -30536.93, 0.00, 0.00, 0.00, 0, -1
94, 6775.73, 5844.51, -39483.17, -52705.08, -36082.91, -42627.41, -31293.60, -30515.38, 0.03, 0.93, 0.35, 0, -1
95, 6774.43, 5839.66, -39426.29, -52687.13, -36080.34, -42619.46, -31280.35, -30502.91, 0.00, 0.00, 0.00, 0, -1
96, 6797.55, 5866.68, -39492.74, -52707.85, -36069.95, -42618.34, -31286.38, -30524.10, 0.00, 0.00, 0.00, 0, -1
97, 6804.23, 5868.38, -39583.08, -52751.05, -36076.54, -42631.86, -31303.06, -30554.79, 0.00, 0.00, 0.00, 0, -1
98, 6772.94, 5834.70, -39515.36, -52728.01, -36091.09, -42638.28, -31300.40, -30536.77, 0.00, 0.00, 0.00, 0, -1
99, 6764.24, 5825.42, -39430.51, -52695.24, -36093.46, -42630.65, -31293.67, -30512.75, 0.00, 0.00, 0.00, 0, -1
100, 6788.98, 5853.01, -39483.50, -52708.68, -36081.57, -42624.95, -31296.51, -30522.24, 0.00, 0.00, 0.00, 0, -1
101, 6804.74, 5871.92, -39571.80, -52742.45, -36074.06, -42631.48, -31305.07, -30546.83, 0.00, 0.00, 0.00, 0, -1
102, 6777.58, 5844.38, -39536.14, -52732.99, -36082.62, -42634.03, -31294.95, -30534.76, 0.00, 0.00, 0.00, 0, -1
103, 6764.38, 5830.21, -39425.05, -52687.95, -36081.55, -42623.30, -31284.06, -30506.02, 0.00, 0.00, 0.00, 0, -1
104, 6787.60, 5854.77, -39461.13, -52696.11, -36068.47, -42618.09, -31285.67, -30517.21, 0.02, 0.93, 0.35, 0, -1
105, 6802.33, 5873.21, -39555.79, -52735.52, -36066.68, -42626.88, -31297.52, -30552.58, 0.00, 0.00, 0.00, 0, -1
106, 6790.86, 5859.38, -39549.38, -52736.82, -36077.97, -42632.20, -31301.94, -30549.49, 0.00, 0.00, 0.00, 0, -1
107, 6766.07, 5830.97, -39427.22, -52690.44, -36092.16, -42628.71, -31308.45, -30521.78, 0.00, 0.00, 0.00, 0, -1
108, 6784.40, 5849.32, -39447.30, -52692.43, -36082.40, -42622.03, -31306.23, -30522.92, 0.00, 0.00, 0.00, 0, -1
109, 6806.15, 5867.09, -39536.75, -52728.23, -36077.08, -42628.78, -31306.79, -30548.89, 0.00, 0.00, 0.00, 0, -1
110, 6796.87, 5856.74, -39559.55, -52745.22, -36074.98, -42636.67, -31293.47, -30547.75, 0.00, 0.00, 0.00, 0, -1
111, 6769.25, 5832.96, -39435.92, -52695.18, -36085.57, -42631.30, -31286.25, -30517.60, 0.00, 0.00, 0.00, 0, -1
112, 6776.58, 5845.92, -39433.97, -52693.41, -36084.19, -42626.54, -31295.03, -30520.26, 0.00, 0.00, 0.00, 0, -1
113, 6788.98, 5861.23, -39528.25, -52734.76, -36083.70, -42636.27, -31309.00, -30552.98, 0.02, 0.93, 0.35, 0, -1
114, 6789.81, 5860.20, -39578.79, -52760.71, -36077.32, -42638.59, -31298.97, -30557.85, 0.00, 0.00, 0.00, 0, -1
115, 6759.88, 5826.34, -39463.16, -52714.66, -36090.45, -42633.98, -31300.06, -30528.37, 0.00, 0.00, 0.00, 0, -1
116, 6761.04, 5827.73, -39438.07, -52702.02, -36095.27, -42630.63, -31308.47, -30526.94, 0.00, 0.00, 0.00, 0, -1
117, 6792.78, 5860.49, -39515.67, -52723.76, -36083.38, -42625.02, -31312.02, -30545.49, 0.00, 0.00, 0.00, 0, -1
118, 6804.47, 5869.86, -39582.43, -52754.65, -36073.19, -42633.98, -31306.05, -30558.14, 0.00, 0.00, 0.00, 0, -1
119, 6778.59, 5841.16, -39492.47, -52718.44, -36084.23, -42632.38, -31300.38, -30530.29, 0.00, 0.00, 0.00, 0, -1
120, 6779.64, 5847.86, -39433.19, -52690.23, -36088.43, -42618.11, -31297.80, -30514.24, 0.00, 0.00, 0.00, 0, -1
121, 6793.34, 5870.33, -39503.40, -52715.40, -36088.45, -42627.55, -31313.72, -30542.81, 0.00, 0.00, 0.00, 0, -1
122, 6806.53, 5877.23, -39589.99, -52753.04, -36084.03, -42639.44, -31321.25, -30567.37, 0.00, 0.00, 0.00, 0, -1
123, 6778.17, 5839.64, -39527.07, -52733.30, -36099.54, -42644.73, -31328.45, -30551.64, 0.03, 0.93, 0.35, 0, -1
124, 6771.15, 5835.24, -39438.31, -52695.62, -36095.20, -42631.14, -31308.71, -30526.98, 0.00, 0.00, 0.00, 0, -1
125, 6778.97, 5848.47, -39492.56, -52716.90, -36101.26, -42639.77, -31323.44, -30550.90, 0.00, 0.00, 0.00, 0, -1
126, 6792.05, 5863.13, -39581.52, -52752.39, -36092.61, -42644.76, -31321.61, -30568.15, 0.00, 0.00, 0.00, 0, -1
127, 6784.13, 5851.57, -39534.47, -52729.60, -36083.00, -42632.06, -31296.69, -30541.40, 0.00, 0.00, 0.00, 0, -1
128, 6764.67, 5829.69, -39428.54, -52690.32, -36094.13, -42628.15, -31299.57, -30518.15, 0.00, 0.00, 0.00, 0, -1
129, 6772.06, 5841.16, -39478.45, -52709.82, -36092.50, -42636.71, -31308.91, -30539.95, 0.00, 0.00, 0.00, 0, -1
130, 6798.77, 5873.14, -39561.96, -52737.57, -36073.28, -42635.01, -31303.39, -30559.01, 0.00, 0.00, 0.00, 0, -1
131, 6781.16, 5854.23, -39561.78, -52745.73, -36083.25, -42644.63, -31304.40, -30558.81, 0.00, 0.00, 0.00, 0, -1
132, 6762.07, 5829.74, -39442.04, -52698.73, -36097.30, -42640.36, -31303.59, -30529.51, 0.00, 0.00, 0.00, 0, -1
133, 6783.60, 5851.49, -39452.37, -52698.06, -36081.86, -42630.16, -31299.33, -30528.84, 0.04, 0.93, 0.35, 0, -1
134, 6799.65, 5871.49, -39538.89, -52734.11, -36080.21, -42640.67, -31316.02, -30560.13, 0.00, 0.00, 0.00, 0, -1
135, 6795.69, 5865.79, -39569.16, -52750.54, -36085.55, -42646.05, -31316.45, -30568.33, 0.00, 0.00, 0.00, 0, -1
136, 6769.81, 5834.70, -39448.46, -52703.31, -36096.01, -42640.67, -31303.06, -30535.68, 0.00, 0.00, 0.00, 0, -1
137, 6781.21, 5847.44, -39444.10, -52698.53, -36092.12, -42636.89, -31306.21, -30534.29, 0.00, 0.00, 0.00, 0, -1
138, 6792.90, 5870.37, -39533.48, -52733.89, -36088.66, -42645.83, -31320.76, -30565.09, 0.00, 0.00, 0.00, 0, -1
139, 6792.45, 5870.64, -39585.96, -52755.73, -36081.46, -42647.26, -31312.29, -30572.20, 0.00, 0.00, 0.00, 0, -1
140, 6761.25, 5833.94, -39473.22, -52720.77, -36097.75, -42644.24, -31311.04, -30544.31, 0.00, 0.00, 0.00, 0, -1
141, 6758.56, 5828.40, -39446.54, -52714.44, -36101.04, -42644.63, -31312.65, -30543.93, 0.00, 0.00, 0.00, 0, -1
142, 6781.83, 5854.39, -39526.18, -52738.18, -36092.46, -42647.11, -31321.86, -30564.65, 0.00, 0.00, 0.00, 0, -1
143, 6792.85, 5864.11, -39598.55, -52768.31, -36085.82, -42650.01, -31329.14, -30579.02, 0.03, 0.92, 0.35, 0, -1
144, 6767.30, 5833.65, -39505.07, -52735.39, -36101.60, -42648.94, -31323.22, -30551.59, 0.00, 0.00, 0.00, 0, -1
145, 6766.27, 5831.91, -39441.20, -52709.41, -36101.22, -42637.94, -31313.65, -30529.46, 0.00, 0.00, 0.00, 0, -1
146, 6788.76, 5858.37, -39500.20, -52721.64, -36086.42, -42631.66, -31307.44, -30537.71, 0.00, 0.00, 0.00, 0, -1
147, 6796.09, 5868.07, -39582.12, -52754.56, -36074.48, -42636.13, -31301.94, -30554.50, 0.00, 0.00, 0.00, 0, -1
148, 6773.70, 5845.07, -39516.88, -52728.41, -36083.16, -42630.68, -31298.99, -30534.31, 0.00, 0.00, 0.00, 0, -1
149, 6756.17, 5829.27, -39431.32, -52698.73, -36095.47, -42630.07, -31297.07, -30519.47, 0.00, 0.00, 0.00, 0, -1
150, 6768.87, 5845.74, -39486.23, -52714.73, -36095.54, -42632.29, -31306.32, -30538.05, 0.00, 0.00, 0.00, 0, -1
151, 6788.11, 5862.64, -39578.25, -52753.00, -36095.92, -42644.80, -31324.70, -30568.94, 0.00, 0.00, 0.00, 0, -1
152, 6780.27, 5848.65, -39546.80, -52744.24, -36100.70, -42647.11, -31316.49, -30556.91, 0.02, 0.92, 0.35, 0, -1
153, 6767.53, 5835.50, -39430.58, -52694.26, -36094.47, -42635.19, -31291.03, -30520.23, 0.00, 0.00, 0.00, 0, -1
154, 6788.43, 5859.46, -39454.89, -52691.51, -36073.01, -42626.61, -31285.98, -30524.66, 0.00, 0.00, 0.00, 0, -1
155, 6810.64, 5882.00, -39538.29, -52725.13, -36066.24, -42629.27, -31291.64, -30550.52, 0.00, 0.00, 0.00, 0, -1
156, 6789.90, 5857.90, -39540.91, -52737.64, -36083.22, -42640.02, -31297.78, -30551.08, 0.00, 0.00, 0.00, 0, -1
157, 6768.42, 5841.67, -39421.70, -52686.99, -36090.78, -42624.11, -31293.36, -30515.32, 0.00, 0.00, 0.00, 0, -1
158, 6778.10, 5856.81, -39438.78, -52687.89, -36087.47, -42619.72, -31293.65, -30523.23, 0.00, 0.00, 0.00, 0, -1
159, 6807.74, 5887.76, -39518.48, -52709.66, -36071.45, -42616.10, -31290.88, -30542.56, 0.00, 0.00, 0.00, 0, -1
160, 6800.21, 5877.03, -39547.75, -52733.46, -36076.27, -42625.60, -31293.34, -30546.83, 0.00, 0.00, 0.00, 0, -1
161, 6761.09, 5837.69, -39437.91, -52701.88, -36097.11, -42631.05, -31292.75, -30525.11, 0.00, 0.00, 0.00, 0, -1
162, 6773.32, 5844.91, -39429.37, -52696.38, -36087.20, -42623.10, -31285.20, -30520.70, 0.02, 0.93, 0.35, 0, -1
163, 6797.48, 5872.83, -39503.73, -52720.45, -36077.99, -42620.15, -31289.02, -30539.37, 0.00, 0.00, 0.00, 0, -1
164, 6796.81, 5872.23, -39560.04, -52745.67, -36078.71, -42628.95, -31293.85, -30549.74, 0.00, 0.00, 0.00, 0, -1
165, 6771.21, 5838.36, -39454.11, -52710.04, -36087.96, -42626.54, -31291.99, -30521.69, 0.00, 0.00, 0.00, 0, -1
166, 6779.91, 5848.18, -39419.91, -52692.61, -36084.03, -42616.37, -31292.42, -30514.85, 0.00, 0.00, 0.00, 0, -1
167, 6794.37, 5868.45, -39493.79, -52714.44, -36084.43, -42622.20, -31308.56, -30537.31, 0.00, 0.00, 0.00, 0, -1
168, 6804.79, 5876.92, -39559.23, -52742.85, -36074.64, -42625.98, -31293.29, -30546.54, 0.00, 0.00, 0.00, 0, -1
169, 6775.26, 5841.32, -39476.18, -52724.61, -36096.77, -42634.25, -31296.62, -30532.73, 0.00, 0.00, 0.00, 0, -1
170, 6777.45, 5841.00, -39416.14, -52695.22, -36095.34, -42624.35, -31297.67, -30520.35, 0.00, 0.00, 0.00, 0, -1
171, 6798.57, 5870.04, -39476.71, -52708.50, -36081.46, -42622.03, -31295.88, -30533.91, 0.00, 0.00, 0.00, 0, -1
172, 6818.20, 5886.85, -39553.67, -52739.18, -36071.02, -42620.84, -31295.84, -30543.63, 0.01, 0.93, 0.35, 0, -1
173, 6792.38, 5852.45, -39497.50, -52726.47, -36084.03, -42625.54, -31298.65, -30530.65, 0.00, 0.00, 0.00, 0, -1
174, 6774.59, 5838.07, -39416.23, -52697.59, -36083.52, -42615.30, -31289.47, -30508.03, 0.00, 0.00, 0.00, 0, -1
175, 6797.52, 5861.32, -39461.91, -52706.37, -36068.47, -42608.75, -31281.89, -30516.70, 0.00, 0.00, 0.00, 0, -1
176, 6810.71, 5880.10, -39546.14, -52741.38, -36060.94, -42619.10, -31281.31, -30542.23, 0.00, 0.00, 0.00, 0, -1
177, 6786.10, 5853.50, -39520.14, -52738.43, -36075.42, -42626.56, -31286.45, -30532.91, 0.00, 0.00, 0.00, 0, -1
178, 6762.99, 5823.75, -39425.39, -52707.09, -36089.93, -42630.45, -31298.01, -30516.93, 0.00, 0.00, 0.00, 0, -1
179, 6788.25, 5848.83, -39455.66, -52708.47, -36078.04, -42623.14, -31295.77, -30523.85, 0.00, 0.00, 0.00, 0, -1
180, 6807.11, 5873.61, -39537.53, -52739.09, -36074.20, -42624.57, -31297.98, -30541.94, 0.00, 0.00, 0.00, 0, -1
181, 6789.81, 5853.59, -39544.01, -52751.50, -36083.52, -42629.49, -31301.38, -30542.79, 0.00, 0.00, 0.00, 0, -1
182, 6763.93, 5820.48, -39436.68, -52713.37, -36099.41, -42627.73, -31306.79, -30521.24, 0.01, 0.93, 0.34, 0, -1
183, 6777.29, 5838.30, -39452.13, -52710.82, -36089.93, -42623.84, -31304.04, -30526.13, 0.00, 0.00, 0.00, 0, -1
184, 6807.74, 5872.52, -39524.79, -52724.32, -36071.18, -42616.62, -31305.47, -30539.12, 0.00, 0.00, 0.00, 0, -1
185, 6804.83, 5865.08, -39553.91, -52741.00, -36072.65, -42623.52, -31301.18, -30543.23, 0.00, 0.00, 0.00, 0, -1
186, 6772.49, 5831.55, -39447.61, -52707.25, -36083.96, -42621.27, -31289.47, -30516.81, 0.00, 0.00, 0.00, 0, -1
187, 6783.44, 5843.15, -39439.59, -52698.06, -36077.08, -42613.20, -31293.96, -30517.21, 0.00, 0.00, 0.00, 0, -1
188, 6806.02, 5866.91, -39510.84, -52717.32, -36075.91, -42613.51, -31304.87, -30536.62, 0.00, 0.00, 0.00, 0, -1
189, 6804.94, 5861.28, -39561.83, -52748.15, -36076.09, -42626.16, -31302.32, -30543.68, 0.00, 0.00, 0.00, 0, -1
190, 6781.81, 5832.08, -39468.91, -52720.39, -36092.95, -42634.90, -31295.35, -30523.09, 0.00, 0.00, 0.00, 0, -1
191, 6790.82, 5841.99, -39427.94, -52694.73, -36080.32, -42618.88, -31285.60, -30507.31, 0.03, 0.93, 0.35, 0, -1
192, 6804.18, 5866.55, -39486.39, -52710.06, -36065.48, -42610.11, -31285.65, -30519.23, 0.00, 0.00, 0.00, 0, -1
193, 6803.16, 5867.24, -39561.45, -52749.78, -36072.25, -42623.70, -31296.67, -30544.93, 0.00, 0.00, 0.00, 0, -1
194, 6785.48, 5838.63, -39483.28, -52715.74, -36081.97, -42625.36, -31292.58, -30520.93, 0.00, 0.00, 0.00, 0, -1
195, 6775.31, 5828.87, -39422.26, -52695.64, -36084.90, -42625.38, -31289.92, -30508.57, 0.00, 0.00, 0.00, 0, -1
196, 6789.95, 5851.64, -39477.45, -52707.87, -36079.87, -42625.94, -31303.71, -30527.99, 0.00, 0.00, 0.00, 0, -1
197, 6808.32, 5871.65, -39552.21, -52740.88, -36069.43, -42629.22, -31306.88, -30550.70, 0.00, 0.00, 0.00, 0, -1
198, 6794.64, 5852.20, -39495.46, -52722.53, -36072.25, -42624.26, -31294.34, -30529.29, 0.00, 0.00, 0.00, 0, -1
199, 6790.17, 5839.73, -39413.48, -52688.69, -36077.10, -42617.46, -31288.73, -30506.67, 0.00, 0.00, 0.00, 0, -1
200, 6806.98, 5857.88, -39457.96, -52700.41, -36065.99, -42619.34, -31283.52, -30517.60, 0.00, 0.00, 0.00, 0, -1
201, 6811.87, 5870.19, -39543.05, -52736.10, -36063.64, -42631.12, -31290.68, -30542.94, 0.04, 0.93, 0.36, 0, -1
202, 6791.38, 5849.74, -39522.42, -52729.77, -36072.18, -42627.32, -31287.95, -30526.54, 0.00, 0.00, 0.00, 0, -1
203, 6774.17, 5827.81, -39425.28, -52692.54, -36077.39, -42617.98, -31281.69, -30497.86, 0.00, 0.00, 0.00, 0, -1
204, 6784.38, 5840.85, -39456.53, -52706.53, -36077.52, -42619.90, -31289.07, -30511.94, 0.00, 0.00, 0.00, 0, -1
205, 6808.83, 5867.20, -39532.68, -52737.53, -36063.91, -42619.25, -31289.85, -30528.99, 0.00, 0.00, 0.00, 0, -1
206, 6795.18, 5849.94, -39541.82, -52746.05, -36075.04, -42633.36, -31301.92, -30535.39, 0.00, 0.00, 0.00, 0, -1
207, 6773.36, 5827.35, -39437.11, -52703.27, -36088.25, -42628.33, -31296.44, -30507.13, 0.00, 0.00, 0.00, 0, -1
208, 6792.11, 5845.74, -39447.83, -52699.22, -36074.42, -42617.42, -31285.98, -30505.53, 0.00, 0.00, 0.00, 0, -1
209, 6807.11, 5860.07, -39528.23, -52734.43, -36070.98, -42629.74, -31301.47, -30541.27, 0.00, 0.00, 0.00, 0, -1
210, 6795.67, 5846.08, -39560.95, -52759.14, -36077.43, -42642.90, -31306.61, -30558.05, 0.00, 0.00, 0.00, 0, -1
211, 6777.23, 5827.19, -39454.27, -52708.59, -36079.65, -42630.36, -31289.69, -30520.52, 0.03, 0.93, 0.36, 0, -1
212, 6785.54, 5838.12, -39438.63, -52698.32, -36074.29, -42622.92, -31281.58, -30512.83, 0.00, 0.00, 0.00, 0, -1
213, 6799.47, 5857.01, -39507.51, -52726.11, -36074.89, -42633.78, -31302.59, -30546.61, 0.00, 0.00, 0.00, 0, -1
214, 6794.30, 5852.13, -39562.77, -52762.95, -36085.93, -42651.64, -31326.10, -30576.43, 0.00, 0.00, 0.00, 0, -1
215, 6774.34, 5827.97, -39466.52, -52721.50, -36090.00, -42640.09, -31310.52, -30538.72, 0.00, 0.00, 0.00, 0, -1
216, 6792.27, 5847.22, -39420.63, -52691.13, -36072.32, -42619.34, -31291.03, -30509.82, 0.00, 0.00, 0.00, 0, -1
217, 6809.86, 5869.63, -39479.39, -52711.54, -36067.60, -42621.00, -31301.27, -30531.28, 0.00, 0.00, 0.00, 0, -1
218, 6806.53, 5862.42, -39554.11, -52754.25, -36078.73, -42640.02, -31307.77, -30558.41, 0.00, 0.00, 0.00, 0, -1
219, 6779.75, 5826.74, -39488.07, -52727.18, -36091.54, -42636.93, -31294.47, -30530.04, 0.00, 0.00, 0.00, 0, -1
220, 6778.64, 5824.22, -39429.44, -52698.75, -36088.37, -42622.14, -31290.07, -30508.63, 0.00, 0.00, 0.00, 0, -1
221, 6809.19, 5856.49, -39470.50, -52706.82, -36073.01, -42617.04, -31289.42, -30521.55, 0.02, 0.92, 0.35, 0, -1
222, 6814.69, 5860.96, -39544.91, -52749.02, -36074.95, -42632.02, -31304.69, -30553.85, 0.00, 0.00, 0.00, 0, -1
223, 6797.03, 5846.32, -39497.18, -52723.38, -36075.89, -42619.05, -31293.40, -30523.70, 0.00, 0.00, 0.00, 0, -1
224, 6783.51, 5838.05, -39414.66, -52688.74, -36077.26, -42610.11, -31283.14, -30496.76, 0.00, 0.00, 0.00, 0, -1
225, 6786.50, 5844.38, -39465.63, -52716.30, -36083.34, -42628.33, -31300.11, -30530.22, 0.00, 0.00, 0.00, 0, -1
226, 6796.52, 5859.46, -39547.43, -52749.87, -36079.87, -42639.80, -31312.54, -30560.80, 0.00, 0.00, 0.00, 0, -1
227, 6783.71, 5842.46, -39529.68, -52745.04, -36086.24, -42644.15, -31310.46, -30552.98, 0.00, 0.00, 0.00, 0, -1
228, 6777.67, 5825.36, -39426.73, -52697.50, -36086.49, -42629.78, -31296.33, -30519.21, 0.00, 0.00, 0.00, 0, -1
229, 6803.02, 5852.49, -39443.43, -52697.50, -36069.93, -42615.90, -31292.22, -30515.20, 0.00, 0.00, 0.00, 0, -1
230, 6809.44, 5863.06, -39525.26, -52742.27, -36077.03, -42633.20, -31314.10, -30553.04, 0.02, 0.93, 0.35, 0, -1
231, 6794.06, 5849.54, -39539.50, -52751.28, -36087.16, -42640.46, -31314.28, -30555.91, 0.00, 0.00, 0.00, 0, -1
232, 6774.12, 5824.06, -39443.14, -52703.11, -36092.68, -42628.39, -31299.75, -30520.12, 0.00, 0.00, 0.00, 0, -1
233, 6790.79, 5839.75, -39443.81, -52696.02, -36073.55, -42617.67, -31289.49, -30513.64, 0.00, 0.00, 0.00, 0, -1
234, 6800.83, 5855.82, -39512.23, -52733.20, -36074.46, -42631.57, -31301.61, -30545.47, 0.00, 0.00, 0.00, 0, -1
235, 6795.06, 5851.71, -39546.18, -52755.97, -36078.46, -42636.40, -31309.74, -30552.75, 0.00, 0.00, 0.00, 0, -1
236, 6781.97, 5839.08, -39441.04, -52701.54, -36073.10, -42612.79, -31291.93, -30507.02, 0.00, 0.00, 0.00, 0, -1
237, 6788.74, 5845.20, -39428.12, -52691.89, -36072.18, -42611.79, -31285.51, -30508.10, 0.00, 0.00, 0.00, 0, -1
238, 6792.69, 5849.43, -39504.09, -52730.47, -36085.71, -42637.38, -31313.99, -30552.80, 0.00, 0.00, 0.00, 0, -1
239, 6798.44, 5851.31, -39559.66, -52758.07, -36080.18, -42642.34, -31311.31, -30562.93, 0.00, 0.00, 0.00, 0, -1
240, 6776.40, 5826.79, -39470.92, -52714.57, -36082.44, -42633.16, -31294.74, -30524.37, 0.02, 0.93, 0.34, 0, -1
241, 6784.69, 5835.24, -39429.53, -52689.70, -36073.93, -42616.66, -31283.46, -30509.10, 0.00, 0.00, 0.00, 0, -1
242, 6800.81, 5854.28, -39487.17, -52717.39, -36073.48, -42625.42, -31295.93, -30540.80, 0.00, 0.00, 0.00, 0, -1
243, 6800.14, 5853.03, -39560.62, -52761.07, -36078.44, -42643.04, -31316.16, -30571.04, 0.00, 0.00, 0.00, 0, -1
244, 6774.32, 5827.10, -39500.89, -52728.19, -36090.45, -42638.34, -31304.73, -30535.77, 0.00, 0.00, 0.00, 0, -1
245, 6785.45, 5837.49, -39431.98, -52687.93, -36074.53, -42612.48, -31280.64, -30500.41, 0.00, 0.00, 0.00, 0, -1
246, 6802.73, 5858.26, -39471.95, -52708.36, -36068.56, -42615.75, -31290.63, -30524.30, 0.00, 0.00, 0.00, 0, -1
247, 6798.73, 5854.06, -39553.69, -52757.04, -36080.99, -42645.16, -31314.66, -30563.08, 0.00, 0.00, 0.00, 0, -1
248, 6780.65, 5830.85, -39517.35, -52738.36, -36086.96, -42645.76, -31307.84, -30542.45, 0.00, 0.00, 0.00, 0, -1
249, 6792.81, 5838.23, -39428.57, -52685.90, -36074.02, -42618.76, -31289.54, -30503.94, 0.00, 0.00, 0.00, 0, -1
250, 6810.42, 5859.17, -39457.20, -52698.53, -36070.57, -42622.03, -31293.20, -30521.33, 0.02, 0.93, 0.34, 0, -1
251, 6810.20, 5866.64, -39537.08, -52747.72, -36076.52, -42643.33, -31312.02, -30560.06, 0.00, 0.00, 0.00, 0, -1
252, 6797.57, 5849.29, -39523.38, -52738.43, -36083.25, -42641.70, -31305.63, -30548.22, 0.00, 0.00, 0.00, 0, -1
253, 6792.61, 5840.87, -39427.61, -52688.22, -36084.23, -42624.04, -31297.92, -30511.85, 0.00, 0.00, 0.00, 0, -1
254, 6808.94, 5862.10, -39447.63, -52694.17, -36071.42, -42618.83, -31288.17, -30517.53, 0.00, 0.00, 0.00, 0, -1
255, 6810.00, 5868.56, -39527.09, -52738.92, -36077.75, -42640.40, -31305.63, -30559.77, 0.00, 0.00, 0.00, 0, -1
0, 6798.13, 5852.29, -39545.93, -52750.43, -36092.01, -42651.31, -31318.10, -30568.71, 0.00, 0.00, 0.00, 0, -1
1, 6791.26, 5840.04, -39439.76, -52687.29, -36084.86, -42626.38, -31297.89, -30517.71, 0.00, 0.00, 0.00, 0, -1
2, 6789.23, 5842.77, -39444.99, -52693.66, -36088.25, -42627.28, -31307.39, -30527.12, 0.00, 0.00, 0.00, 0, -1
3, 6806.64, 5860.81, -39515.36, -52727.43, -36078.08, -42637.94, -31313.14, -30560.20, 0.02, 0.93, 0.35, 0, -1
4, 6792.90, 5839.82, -39556.71, -52761.09, -36089.93, -42659.53, -31323.38, -30578.66, 0.00, 0.00, 0.00, 0, -1
5, 6776.42, 5825.62, -39453.04, -52704.72, -36087.09, -42636.53, -31303.82, -30530.31, 0.00, 0.00, 0.00, 0, -1
6, 6795.33, 5847.33, -39428.50, -52687.11, -36072.05, -42618.92, -31300.40, -30520.17, 0.00, 0.00, 0.00, 0, -1
7, 6800.38, 5856.18, -39498.21, -52725.13, -36084.68, -42639.13, -31329.63, -30565.74, 0.00, 0.00, 0.00, 0, -1
8, 6795.69, 5851.42, -39554.29, -52761.29, -36083.96, -42655.38, -31311.02, -30575.91, 0.00, 0.00, 0.00, 0, -1
9, 6782.77, 5832.82, -39466.00, -52711.27, -36079.40, -42635.48, -31287.70, -30525.35, 0.00, 0.00, 0.00, 0, -1
10, 6800.47, 5848.69, -39420.23, -52682.01, -36061.34, -42612.39, -31276.57, -30502.91, 0.00, 0.00, 0.00, 0, -1
11, 6809.93, 5867.22, -39471.86, -52709.48, -36066.01, -42623.81, -31295.15, -30530.56, 0.00, 0.00, 0.00, 0, -1
12, 6803.42, 5864.63, -39540.55, -52751.03, -36072.23, -42644.04, -31308.11, -30563.08, 0.00, 0.00, 0.00, 0, -1
13, 6790.28, 5840.09, -39481.58, -52718.98, -36080.32, -42632.89, -31298.28, -30535.07, 0.02, 0.93, 0.35, 0, -1
14, 6802.66, 5846.41, -39413.12, -52679.68, -36064.52, -42608.53, -31272.35, -30501.79, 0.00, 0.00, 0.00, 0, -1
15, 6799.20, 5851.75, -39460.59, -52711.49, -36068.50, -42625.42, -31294.12, -30532.53, 0.00, 0.00, 0.00, 0, -1
16, 6798.73, 5855.62, -39540.91, -52756.30, -36075.40, -42646.16, -31307.73, -30564.96, 0.00, 0.00, 0.00, 0, -1
17, 6784.34, 5836.62, -39509.08, -52737.46, -36081.77, -42641.45, -31295.55, -30545.67, 0.00, 0.00, 0.00, 0, -1
18, 6790.95, 5840.31, -39422.42, -52682.81, -36072.07, -42615.99, -31271.50, -30504.97, 0.00, 0.00, 0.00, 0, -1
19, 6802.60, 5857.01, -39458.09, -52697.95, -36069.66, -42620.24, -31285.67, -30521.73, 0.00, 0.00, 0.00, 0, -1
20, 6813.62, 5874.91, -39531.43, -52741.64, -36069.10, -42635.55, -31303.33, -30556.22, 0.00, 0.00, 0.00, 0, -1
21, 6790.79, 5850.01, -39525.10, -52737.15, -36081.88, -42638.84, -31301.74, -30545.65, 0.00, 0.00, 0.00, 0, -1
22, 6785.36, 5840.82, -39428.57, -52676.55, -36073.50, -42609.71, -31277.24, -30496.25, 0.00, 0.00, 0.00, 0, -1
23, 6807.85, 5862.84, -39444.14, -52677.72, -36062.77, -42602.87, -31278.31, -30503.60, 0.02, 0.93, 0.35, 0, -1
24, 6805.86, 5862.84, -39524.07, -52734.00, -36077.10, -42634.32, -31312.24, -30554.97, 0.00, 0.00, 0.00, 0, -1
25, 6788.81, 5841.65, -39547.88, -52754.25, -36088.14, -42647.82, -31318.10, -30567.95, 0.00, 0.00, 0.00, 0, -1
26, 6779.66, 5832.31, -39436.88, -52694.08, -36082.66, -42622.43, -31291.41, -30519.29, 0.00, 0.00, 0.00, 0, -1
27, 6799.91, 5854.84, -39428.27, -52680.20, -36065.57, -42610.07, -31279.86, -30504.63, 0.00, 0.00, 0.00, 0, -1
28, 6809.10, 5872.00, -39503.04, -52721.10, -36073.12, -42628.71, -31308.15, -30547.39, 0.00, 0.00, 0.00, 0, -1
29, 6797.12, 5862.44, -39547.43, -52751.59, -36087.88, -42646.88, -31322.19, -30569.68, 0.00, 0.00, 0.00, 0, -1
30, 6789.77, 5847.17, -39450.09, -52693.12, -36076.96, -42623.08, -31287.17, -30517.35, 0.00, 0.00, 0.00, 0, -1
31, 6801.05, 5856.89, -39428.97, -52677.98, -36069.95, -42611.34, -31293.80, -30512.19, 0.00, 0.00, 0.00, 0, -1
32, 6800.58, 5860.31, -39493.99, -52720.90, -36076.83, -42635.73, -31310.79, -30557.45, 0.00, 0.00, 0.00, 0, -1
33, 6800.45, 5859.60, -39544.95, -52753.38, -36072.36, -42645.43, -31297.78, -30569.32, 0.02, 0.92, 0.36, 0, -1
34, 6788.65, 5844.18, -39467.34, -52705.14, -36076.74, -42629.34, -31284.69, -30525.33, 0.00, 0.00, 0.00, 0, -1
35, 6790.88, 5847.06, -39431.96, -52682.01, -36073.73, -42619.70, -31280.46, -30510.82, 0.00, 0.00, 0.00, 0, -1
36, 6800.32, 5860.14, -39487.39, -52711.25, -36071.54, -42627.32, -31296.64, -30537.85, 0.00, 0.00, 0.00, 0, -1
37, 6798.75, 5858.68, -39558.90, -52758.92, -36080.25, -42648.82, -31314.39, -30570.05, 0.00, 0.00, 0.00, 0, -1
38, 6777.76, 5832.20, -39501.95, -52726.40, -36088.50, -42643.75, -31299.06, -30541.29, 0.00, 0.00, 0.00, 0, -1
39, 6785.68, 5836.78, -39435.72, -52682.10, -36073.25, -42617.20, -31279.83, -30505.84, 0.00, 0.00, 0.00, 0, -1
40, 6799.87, 5855.35, -39475.21, -52702.62, -36067.42, -42620.66, -31286.88, -30525.80, 0.00, 0.00, 0.00, 0, -1
41, 6792.40, 5847.53, -39551.46, -52755.75, -36080.61, -42644.94, -31304.44, -30564.38, 0.00, 0.00, 0.00, 0, -1
42, 6783.40, 5834.59, -39513.21, -52728.48, -36076.14, -42631.77, -31284.37, -30532.33, 0.02, 0.93, 0.36, 0, -1
43, 6792.96, 5844.20, -39420.07, -52668.13, -36061.79, -42598.67, -31260.61, -30478.64, 0.00, 0.00, 0.00, 0, -1
44, 6792.92, 5851.02, -39455.88, -52688.67, -36069.21, -42610.43, -31280.39, -30508.83, 0.00, 0.00, 0.00, 0, -1
45, 6796.38, 5860.00, -39537.75, -52741.02, -36077.28, -42633.65, -31301.47, -30555.39, 0.00, 0.00, 0.00, 0, -1
46, 6782.99, 5840.71, -39533.82, -52739.90, -36089.80, -42637.85, -31304.31, -30551.10, 0.00, 0.00, 0.00, 0, -1
47, 6788.38, 5843.73, -39432.34, -52674.30, -36074.39, -42603.52, -31284.82, -30497.52, 0.00, 0.00, 0.00, 0, -1
48, 6810.22, 5867.62, -39441.35, -52678.01, -36063.18, -42604.34, -31282.81, -30502.55, 0.00, 0.00, 0.00, 0, -1
49, 6822.09, 5884.83, -39515.98, -52724.50, -36066.39, -42623.81, -31300.60, -30544.24, 0.00, 0.00, 0.00, 0, -1
50, 6797.90, 5858.68, -39540.30, -52745.40, -36079.09, -42636.82, -31303.66, -30555.17, 0.00, 0.00, 0.00, 0, -1
51, 6782.84, 5837.92, -39436.41, -52684.67, -36074.17, -42614.00, -31279.19, -30506.67, 0.00, 0.00, 0.00, 0, -1
52, 6795.06, 5851.46, -39441.39, -52681.96, -36075.85, -42612.39, -31291.32, -30517.82, 0.03, 0.92, 0.36, 0, -1
53, 6812.59, 5875.00, -39509.12, -52716.36, -36077.30, -42622.90, -31307.46, -30551.68, 0.00, 0.00, 0.00, 0, -1
54, 6795.06, 5857.54, -39550.49, -52753.54, -36088.25, -42646.28, -31316.11, -30570.23, 0.00, 0.00, 0.00, 0, -1
55, 6783.17, 5848.00, -39450.05, -52694.77, -36076.74, -42624.08, -31290.56, -30523.23, 0.00, 0.00, 0.00, 0, -1
56, 6804.07, 5867.87, -39422.80, -52670.81, -36065.19, -42608.77, -31277.42, -30505.21, 0.00, 0.00, 0.00, 0, -1
57, 6819.45, 5883.25, -39486.90, -52703.42, -36066.75, -42618.67, -31294.32, -30536.73, 0.00, 0.00, 0.00, 0, -1
58, 6807.42, 5871.38, -39550.20, -52747.95, -36081.32, -42636.49, -31313.88, -30562.52, 0.00, 0.00, 0.00, 0, -1
59, 6783.51, 5843.08, -39471.19, -52705.59, -36085.95, -42628.75, -31301.02, -30525.80, 0.00, 0.00, 0.00, 0, -1
60, 6797.14, 5851.55, -39421.21, -52673.96, -36070.30, -42610.36, -31278.85, -30499.98, 0.00, 0.00, 0.00, 0, -1
61, 6810.53, 5868.58, -39477.85, -52698.82, -36064.52, -42614.11, -31287.43, -30523.03, 0.00, 0.00, 0.00, 0, -1
62, 6795.80, 5859.08, -39553.11, -52753.96, -36081.48, -42642.59, -31317.18, -30564.96, 0.02, 0.92, 0.35, 0, -1
63, 6776.31, 5837.18, -39494.05, -52724.01, -36089.84, -42634.92, -31308.65, -30536.48, 0.00, 0.00, 0.00, 0, -1
64, 6786.84, 5844.00, -39419.89, -52676.64, -36076.03, -42609.44, -31280.24, -30492.92, 0.00, 0.00, 0.00, 0, -1
65, 6798.04, 5858.97, -39469.54, -52697.30, -36073.23, -42616.44, -31283.90, -30512.81, 0.00, 0.00, 0.00, 0, -1
66, 6800.67, 5864.05, -39548.86, -52746.85, -36075.00, -42632.82, -31297.49, -30549.54, 0.00, 0.00, 0.00, 0, -1
67, 6780.47, 5840.94, -39512.12, -52733.60, -36082.40, -42631.39, -31294.01, -30532.91, 0.00, 0.00, 0.00, 0, -1
68, 6780.76, 5842.01, -39421.64, -52673.38, -36076.50, -42608.21, -31286.21, -30496.03, 0.00, 0.00, 0.00, 0, -1
69, 6797.41, 5859.73, -39457.29, -52684.69, -36071.36, -42609.22, -31297.22, -30513.44, 0.00, 0.00, 0.00, 0, -1
70, 6803.87, 5863.89, -39531.90, -52737.17, -36072.41, -42627.50, -31303.08, -30552.06, 0.00, 0.00, 0.00, 0, -1
71, 6785.36, 5841.14, -39522.64, -52735.21, -36081.46, -42631.70, -31296.29, -30540.24, 0.00, 0.00, 0.00, 0, -1
72, 6792.83, 5850.03, -39412.70, -52656.89, -36059.84, -42599.50, -31258.80, -30479.78, 0.02, 0.93, 0.35, 0, -1
73, 6811.98, 5874.80, -39428.05, -52658.72, -36050.84, -42595.43, -31258.29, -30490.75, 0.00, 0.00, 0.00, 0, -1
74, 6815.85, 5883.43, -39507.91, -52715.56, -36070.21, -42618.52, -31292.82, -30544.19, 0.00, 0.00, 0.00, 0, -1
75, 6781.27, 5845.29, -39537.30, -52755.95, -36098.11, -42651.84, -31322.30, -30568.78, 0.00, 0.00, 0.00, 0, -1
76, 6780.85, 5843.48, -39429.21, -52675.41, -36074.20, -42612.08, -31286.74, -30508.07, 0.00, 0.00, 0.00, 0, -1
77, 6818.42, 5882.13, -39412.20, -52649.20, -36046.25, -42583.85, -31266.56, -30489.23, 0.00, 0.00, 0.00, 0, -1
78, 6816.01, 5881.79, -39487.51, -52711.13, -36063.91, -42618.05, -31297.13, -30541.65, 0.00, 0.00, 0.00, 0, -1
79, 6794.53, 5856.74, -39532.68, -52758.56, -36088.54, -42650.19, -31316.22, -30563.82, 0.00, 0.00, 0.00, 0, -1
80, 6793.79, 5851.91, -39435.90, -52682.75, -36081.55, -42617.33, -31292.04, -30508.32, 0.00, 0.00, 0.00, 0, -1
81, 6821.48, 5879.83, -39405.10, -52641.51, -36051.80, -42574.80, -31264.39, -30486.10, 0.02, 0.93, 0.35, 0, -1
82, 6823.07, 5886.60, -39470.99, -52688.69, -36063.80, -42601.55, -31301.18, -30538.94, 0.00, 0.00, 0.00, 0, -1
83, 6788.14, 5849.65, -39544.73, -52768.93, -36098.94, -42658.13, -31333.05, -30591.98, 0.00, 0.00, 0.00, 0, -1
84, 6770.75, 5831.61, -39463.01, -52710.15, -36098.40, -42639.68, -31301.47, -30538.58, 0.00, 0.00, 0.00, 0, -1
85, 6804.59, 5862.33, -39409.57, -52647.63, -36067.54, -42593.50, -31261.80, -30485.68, 0.00, 0.00, 0.00, 0, -1
86, 6811.78, 5871.49, -39464.24, -52691.53, -36065.70, -42611.50, -31281.69, -30521.51, 0.00, 0.00, 0.00, 0, -1
87, 6773.00, 5842.46, -39546.87, -52776.96, -36094.80, -42665.03, -31328.32, -30583.67, 0.00, 0.00, 0.00, 0, -1
88, 6762.16, 5828.26, -39488.63, -52723.96, -36090.00, -42640.29, -31308.24, -30534.70, 0.00, 0.00, 0.00, 0, -1
89, 6804.63, 5868.43, -39401.18, -52633.95, -36046.90, -42573.46, -31255.25, -30467.26, 0.00, 0.00, 0.00, 0, -1
90, 6812.10, 5881.28, -39444.14, -52666.34, -36055.06, -42590.84, -31274.16, -30503.45, 0.00, 0.00, 0.00, 0, -1
91, 6786.35, 5855.42, -39533.42, -52756.46, -36091.74, -42644.71, -31318.99, -30575.06, 0.03, 0.92, 0.36, 0, -1
92, 6761.85, 5828.89, -39509.50, -52735.00, -36103.00, -42643.19, -31317.90, -30556.38, 0.00, 0.00, 0.00, 0, -1
93, 6807.11, 5873.39, -39403.64, -52624.03, -36051.55, -42575.69, -31256.63, -30467.13, 0.00, 0.00, 0.00, 0, -1
94, 6825.22, 5891.41, -39427.49, -52641.82, -36049.07, -42578.53, -31265.08, -30486.91, 0.00, 0.00, 0.00, 0, -1
95, 6806.91, 5872.09, -39512.79, -52733.78, -36081.68, -42628.66, -31306.30, -30559.64, 0.00, 0.00, 0.00, 0, -1
96, 6774.81, 5835.84, -39516.03, -52745.24, -36103.63, -42647.37, -31316.69, -30564.87, 0.00, 0.00, 0.00, 0, -1
97, 6799.24, 5862.37, -39408.38, -52639.63, -36060.79, -42588.23, -31258.29, -30478.37, 0.00, 0.00, 0.00, 0, -1
98, 6823.56, 5890.87, -39416.12, -52637.55, -36042.21, -42576.14, -31253.19, -30480.18, 0.00, 0.00, 0.00, 0, -1
99, 6806.87, 5872.52, -39492.09, -52720.97, -36068.07, -42622.36, -31288.75, -30546.50, 0.00, 0.00, 0.00, 0, -1
100, 6762.48, 5828.28, -39530.22, -52771.24, -36114.23, -42664.09, -31330.10, -30584.63, 0.00, 0.00, 0.00, 0, -1
101, 6786.93, 5855.75, -39422.73, -52650.89, -36075.16, -42600.16, -31280.15, -30497.61, 0.03, 0.92, 0.36, 0, -1
102, 6823.09, 5890.71, -39411.24, -52625.08, -36038.81, -42571.15, -31252.61, -30472.74, 0.00, 0.00, 0.00, 0, -1
103, 6815.74, 5884.86, -39486.64, -52703.87, -36059.11, -42611.70, -31286.56, -30534.09, 0.00, 0.00, 0.00, 0, -1
104, 6759.15, 5824.82, -39548.10, -52788.71, -36121.85, -42677.26, -31344.05, -30600.01, 0.00, 0.00, 0.00, 0, -1
105, 6775.48, 5837.85, -39455.23, -52685.94, -36095.70, -42622.47, -31300.69, -30519.18, 0.00, 0.00, 0.00, 0, -1
106, 6817.95, 5881.08, -39414.55, -52628.84, -36054.86, -42575.73, -31256.86, -30470.46, 0.00, 0.00, 0.00, 0, -1
107, 6810.42, 5880.32, -39479.01, -52700.54, -36072.85, -42614.43, -31289.13, -30530.69, 0.00, 0.00, 0.00, 0, -1
108, 6772.27, 5841.83, -39547.92, -52787.31, -36114.50, -42668.83, -31340.77, -30588.38, 0.00, 0.00, 0.00, 0, -1
109, 6765.85, 5831.57, -39474.05, -52710.66, -36108.59, -42638.10, -31322.64, -30533.00, 0.00, 0.00, 0.00, 0, -1
110, 6813.19, 5879.38, -39415.67, -52628.41, -36058.66, -42576.88, -31262.62, -30469.72, 0.03, 0.92, 0.35, 0, -1
111, 6822.22, 5895.54, -39460.19, -52669.70, -36055.69, -42589.62, -31270.71, -30503.31, 0.00, 0.00, 0.00, 0, -1
112, 6787.06, 5859.26, -39536.41, -52765.47, -36097.73, -42649.23, -31317.81, -30573.88, 0.00, 0.00, 0.00, 0, -1
113, 6765.07, 5830.05, -39487.69, -52719.40, -36104.23, -42641.74, -31310.52, -30541.13, 0.00, 0.00, 0.00, 0, -1
114, 6804.79, 5872.16, -39407.44, -52623.85, -36060.58, -42577.55, -31256.46, -30469.05, 0.00, 0.00, 0.00, 0, -1
115, 6819.58, 5888.75, -39447.16, -52655.28, -36062.66, -42587.70, -31272.71, -30504.47, 0.00, 0.00, 0.00, 0, -1
116, 6783.22, 5850.59, -39534.80, -52760.57, -36111.97, -42660.85, -31339.58, -30595.38, 0.00, 0.00, 0.00, 0, -1
117, 6758.23, 5826.52, -39508.79, -52743.79, -36126.83, -42668.56, -31347.29, -30582.71, 0.00, 0.00, 0.00, 0, -1
118, 6791.33, 5858.19, -39415.33, -52637.08, -36080.09, -42606.07, -31294.70, -30501.95, 0.00, 0.00, 0.00, 0, -1
119, 6821.48, 5888.52, -39436.50, -52646.31, -36059.24, -42593.73, -31280.82, -30506.67, 0.00, 0.00, 0.00, 0, -1
120, 6800.25, 5870.06, -39518.20, -52743.34, -36088.48, -42646.88, -31317.41, -30578.50, 0.03, 0.93, 0.35, 0, -1
121, 6761.49, 5830.83, -39522.04, -52763.23, -36112.95, -42671.13, -31331.80, -30588.47, 0.00, 0.00, 0.00, 0, -1
122, 6789.68, 5855.46, -39414.15, -52652.86, -36075.13, -42610.22, -31277.73, -30501.86, 0.00, 0.00, 0.00, 0, -1
123, 6822.78, 5890.78, -39418.21, -52643.88, -36049.29, -42593.46, -31258.56, -30495.45, 0.00, 0.00, 0.00, 0, -1
124, 6808.85, 5878.02, -39499.09, -52728.23, -36079.25, -42642.34, -31306.23, -30565.92, 0.00, 0.00, 0.00, 0, -1
125, 6772.71, 5841.72, -39530.31, -52769.09, -36107.03, -42669.75, -31325.52, -30589.57, 0.00, 0.00, 0.00, 0, -1
126, 6784.94, 5854.77, -39418.71, -52662.47, -36084.30, -42613.58, -31282.65, -30507.16, 0.00, 0.00, 0.00, 0, -1
127, 6824.28, 5898.38, -39403.53, -52625.41, -36050.34, -42577.30, -31255.76, -30478.35, 0.00, 0.00, 0.00, 0, -1
128, 6819.20, 5893.62, -39479.53, -52694.17, -36061.83, -42611.83, -31282.18, -30533.91, 0.00, 0.00, 0.00, 0, -1
129, 6790.08, 5857.41, -39533.82, -52756.17, -36094.42, -42651.95, -31319.38, -30579.22, 0.00, 0.00, 0.00, 0, -1
130, 6778.12, 5843.01, -39435.58, -52684.96, -36096.10, -42623.90, -31296.04, -30523.34, 0.03, 0.93, 0.35, 0, -1
131, 6794.84, 5862.04, -39409.34, -52656.06, -36072.25, -42600.25, -31276.97, -30501.66, 0.00, 0.00, 0.00, 0, -1
132, 6807.92, 5878.69, -39477.14, -52696.23, -36070.21, -42614.43, -31292.20, -30535.28, 0.00, 0.00, 0.00, 0, -1
133, 6797.84, 5866.42, -39544.53, -52749.36, -36087.40, -42642.75, -31311.26, -30568.40, 0.00, 0.00, 0.00, 0, -1
134, 6779.69, 5847.75, -39455.72, -52703.63, -36090.38, -42626.70, -31299.53, -30531.50, 0.00, 0.00, 0.00, 0, -1
135, 6793.88, 5857.27, -39400.56, -52665.76, -36076.81, -42610.07, -31281.69, -30504.70, 0.00, 0.00, 0.00, 0, -1
136, 6818.13, 5880.59, -39455.23, -52685.50, -36065.14, -42611.68, -31281.00, -30521.13, 0.00, 0.00, 0.00, 0, -1
137, 6817.24, 5882.51, -39533.13, -52732.88, -36072.07, -42625.42, -31298.05, -30553.54, 0.00, 0.00, 0.00, 0, -1
138, 6801.70, 5861.66, -39467.93, -52700.45, -36078.93, -42617.27, -31288.33, -30521.60, 0.00, 0.00, 0.00, 0, -1
139, 6809.41, 5866.98, -39381.45, -52652.46, -36064.07, -42597.26, -31267.85, -30489.37, 0.00, 0.00, 0.00, 0, -1
140, 6816.99, 5883.16, -39438.24, -52677.45, -36064.45, -42605.38, -31287.75, -30517.13, 0.03, 0.93, 0.35, 0, -1
141, 6821.44, 5886.73, -39532.19, -52732.14, -36072.38, -42629.34, -31309.07, -30559.91, 0.00, 0.00, 0.00, 0, -1
142, 6800.56, 5859.24, -39497.63, -52721.80, -36086.15, -42635.55, -31306.30, -30553.76, 0.00, 0.00, 0.00, 0, -1
143, 6800.00, 5858.44, -39386.12, -52660.66, -36077.70, -42607.36, -31279.34, -30504.74, 0.00, 0.00, 0.00, 0, -1
144, 6825.06, 5887.23, -39416.79, -52663.32, -36056.02, -42594.51, -31265.04, -30497.03, 0.00, 0.00, 0.00, 0, -1
145, 6834.60, 5901.91, -39509.90, -52711.89, -36051.66, -42611.61, -31283.03, -30530.49, 0.00, 0.00, 0.00, 0, -1
146, 6816.30, 5879.85, -39507.40, -52718.67, -36071.89, -42618.09, -31301.63, -30531.21, 0.00, 0.00, 0.00, 0, -1
147, 6804.50, 5865.05, -39387.77, -52661.58, -36076.88, -42603.14, -31289.36, -30492.45, 0.00, 0.00, 0.00, 0, -1
148, 6823.12, 5879.81, -39405.54, -52662.07, -36056.02, -42594.38, -31264.41, -30489.92, 0.00, 0.00, 0.00, 0, -1
149, 6832.10, 5892.95, -39497.07, -52704.16, -36057.68, -42601.80, -31282.88, -30520.95, 0.04, 0.93, 0.35, 0, -1
150, 6818.94, 5878.31, -39525.35, -52725.66, -36065.70, -42614.45, -31296.33, -30530.27, 0.00, 0.00, 0.00, 0, -1
151, 6796.23, 5849.52, -39400.80, -52681.85, -36076.41, -42611.66, -31289.13, -30500.03, 0.00, 0.00, 0.00, 0, -1
152, 6816.14, 5868.00, -39390.54, -52665.20, -36058.75, -42597.89, -31263.25, -30489.32, 0.00, 0.00, 0.00, 0, -1
153, 6839.37, 5891.61, -39473.00, -52691.91, -36050.99, -42602.73, -31270.96, -30517.44, 0.00, 0.00, 0.00, 0, -1
154, 6826.69, 5878.73, -39533.51, -52729.13, -36062.80, -42620.35, -31288.51, -30539.41, 0.00, 0.00, 0.00, 0, -1
155, 6797.97, 5849.52, -39424.48, -52687.22, -36072.23, -42617.04, -31284.66, -30509.55, 0.00, 0.00, 0.00, 0, -1
156, 6803.85, 5853.65, -39393.81, -52675.17, -36072.38, -42615.03, -31282.29, -30505.84, 0.00, 0.00, 0.00, 0, -1
157, 6831.63, 5883.63, -39464.91, -52691.46, -36061.54, -42606.74, -31288.06, -30519.12, 0.00, 0.00, 0.00, 0, -1
158, 6833.51, 5886.33, -39533.82, -52726.33, -36059.89, -42615.59, -31286.16, -30537.24, 0.00, 0.00, 0.00, 0, -1
159, 6804.07, 5850.79, -39439.43, -52698.48, -36073.68, -42620.98, -31286.52, -30515.56, 0.04, 0.93, 0.35, 0, -1
160, 6800.81, 5844.44, -39384.04, -52680.85, -36076.14, -42617.69, -31286.09, -30504.14, 0.00, 0.00, 0.00, 0, -1
161, 6824.39, 5875.13, -39449.96, -52693.70, -36060.83, -42615.70, -31287.86, -30523.25, 0.00, 0.00, 0.00, 0, -1
162, 6838.18, 5887.83, -39532.28, -52721.66, -36053.90, -42619.07, -31292.29, -30539.30, 0.00, 0.00, 0.00, 0, -1
163, 6811.92, 5856.00, -39460.68, -52702.91, -36069.90, -42616.66, -31290.29, -30520.90, 0.00, 0.00, 0.00, 0, -1
164, 6791.40, 5835.44, -39382.95, -52685.45, -36092.86, -42623.34, -31299.08, -30513.71, 0.00, 0.00, 0.00, 0, -1
165, 6816.79, 5868.43, -39431.79, -52687.17, -36067.33, -42605.55, -31278.70, -30514.29, 0.00, 0.00, 0.00, 0, -1
166, 6835.79, 5887.85, -39520.52, -52719.83, -36055.66, -42611.52, -31277.29, -30534.67, 0.00, 0.00, 0.00, 0, -1
167, 6820.43, 5867.24, -39475.79, -52704.34, -36060.85, -42614.88, -31274.43, -30518.98, 0.00, 0.00, 0.00, 0, -1
168, 6806.06, 5851.40, -39365.00, -52660.95, -36063.00, -42602.22, -31268.46, -30487.40, 0.00, 0.00, 0.00, 0, -1
169, 6810.11, 5858.12, -39411.18, -52684.22, -36064.70, -42610.71, -31278.65, -30507.87, 0.03, 0.94, 0.36, 0, -1
170, 6828.50, 5878.22, -39506.33, -52721.97, -36058.57, -42620.84, -31286.99, -30535.25, 0.00, 0.00, 0.00, 0, -1
171, 6811.72, 5858.79, -39510.93, -52730.65, -36072.79, -42627.03, -31296.15, -30536.66, 0.00, 0.00, 0.00, 0, -1
172, 6788.27, 5836.89, -39395.29, -52686.52, -36083.34, -42620.73, -31293.25, -30509.13, 0.00, 0.00, 0.00, 0, -1
173, 6806.51, 5858.82, -39412.98, -52682.55, -36074.86, -42616.53, -31282.67, -30509.57, 0.00, 0.00, 0.00, 0, -1
174, 6826.51, 5879.02, -39505.01, -52712.92, -36069.77, -42621.33, -31291.03, -30534.92, 0.00, 0.00, 0.00, 0, -1
175, 6825.13, 5873.77, -39529.30, -52724.95, -36074.95, -42619.46, -31291.59, -30534.02, 0.00, 0.00, 0.00, 0, -1
176, 6792.92, 5842.14, -39405.50, -52683.60, -36087.25, -42617.00, -31279.07, -30503.34, 0.00, 0.00, 0.00, 0, -1
177, 6797.37, 5848.74, -39400.67, -52677.81, -36081.37, -42615.70, -31286.83, -30506.93, 0.00, 0.00, 0.00, 0, -1
178, 6826.22, 5885.97, -39479.13, -52695.04, -36061.23, -42606.80, -31281.69, -30518.98, 0.00, 0.00, 0.00, 0, -1
179, 6829.37, 5885.19, -39527.07, -52717.30, -36064.63, -42610.71, -31281.73, -30524.70, 0.03, 0.93, 0.35, 0, -1
180, 6793.32, 5842.32, -39419.54, -52683.66, -36086.00, -42615.75, -31281.60, -30500.88, 0.00, 0.00, 0.00, 0, -1
181, 6790.93, 5838.50, -39394.55, -52674.43, -36087.38, -42613.22, -31285.15, -30499.42, 0.00, 0.00, 0.00, 0, -1
182, 6822.20, 5872.59, -39472.62, -52689.96, -36074.02, -42605.24, -31288.91, -30517.86, 0.00, 0.00, 0.00, 0, -1
183, 6834.00, 5884.52, -39537.57, -52720.72, -36061.45, -42612.10, -31290.25, -30534.94, 0.00, 0.00, 0.00, 0, -1
184, 6805.84, 5851.95, -39443.00, -52689.61, -36072.59, -42612.50, -31282.40, -30510.71, 0.00, 0.00, 0.00, 0, -1
185, 6789.41, 5834.63, -39396.09, -52677.54, -36092.48, -42617.76, -31288.55, -30508.95, 0.00, 0.00, 0.00, 0, -1
186, 6821.39, 5872.83, -39451.97, -52684.56, -36069.57, -42608.48, -31280.46, -30516.01, 0.00, 0.00, 0.00, 0, -1
187, 6835.30, 5886.60, -39530.78, -52721.39, -36064.67, -42621.55, -31289.51, -30540.66, 0.00, 0.00, 0.00, 0, -1
188, 6804.30, 5854.15, -39465.85, -52707.82, -36085.13, -42631.23, -31298.79, -30529.49, 0.04, 0.93, 0.35, 0, -1
189, 6796.52, 5844.78, -39380.29, -52672.64, -36086.55, -42622.74, -31291.48, -30508.57, 0.00, 0.00, 0.00, 0, -1
190, 6821.55, 5870.24, -39429.59, -52678.30, -36067.60, -42613.75, -31285.04, -30512.88, 0.00, 0.00, 0.00, 0, -1
191, 6829.17, 5877.91, -39522.60, -52723.07, -36064.61, -42627.14, -31290.68, -30540.95, 0.00, 0.00, 0.00, 0, -1
192, 6808.48, 5851.37, -39489.18, -52718.06, -36078.02, -42634.79, -31292.31, -30534.61, 0.00, 0.00, 0.00, 0, -1
193, 6791.38, 5834.68, -39386.93, -52679.30, -36088.90, -42628.69, -31284.33, -30513.26, 0.00, 0.00, 0.00, 0, -1
194, 6806.62, 5856.92, -39427.96, -52685.92, -36079.18, -42623.86, -31286.56, -30522.31, 0.00, 0.00, 0.00, 0, -1
195, 6832.91, 5888.43, -39513.41, -52708.63, -36060.11, -42616.01, -31285.31, -30531.39, 0.00, 0.00, 0.00, 0, -1
196, 6811.31, 5862.55, -39511.63, -52718.62, -36074.06, -42622.96, -31288.91, -30530.45, 0.00, 0.00, 0.00, 0, -1
197, 6787.53, 5836.08, -39393.65, -52679.62, -36086.42, -42621.07, -31285.51, -30506.22, 0.00, 0.00, 0.00, 0, -1
198, 6809.59, 5859.80, -39408.54, -52677.23, -36076.18, -42615.25, -31279.01, -30507.20, 0.04, 0.93, 0.35, 0, -1
199, 6824.68, 5876.36, -39497.09, -52711.25, -36069.70, -42626.34, -31284.04, -30536.30, 0.00, 0.00, 0.00, 0, -1
200, 6817.01, 5866.80, -39524.90, -52731.70, -36073.55, -42630.81, -31293.89, -30544.75, 0.00, 0.00, 0.00, 0, -1
201, 6786.06, 5831.44, -39410.57, -52696.98, -36090.58, -42630.59, -31297.38, -30518.54, 0.00, 0.00, 0.00, 0, -1
202, 6799.53, 5842.03, -39405.05, -52687.82, -36078.66, -42623.64, -31283.66, -30511.49, 0.00, 0.00, 0.00, 0, -1
203, 6826.36, 5872.00, -39490.26, -52711.07, -36071.16, -42624.37, -31294.27, -30537.11, 0.00, 0.00, 0.00, 0, -1
204, 6830.09, 5879.02, -39539.43, -52730.04, -36069.16, -42624.71, -31293.42, -30541.78, 0.00, 0.00, 0.00, 0, -1
205, 6795.89, 5842.50, -39427.94, -52695.15, -36084.63, -42628.06, -31287.05, -30515.05, 0.00, 0.00, 0.00, 0, -1
206, 6803.00, 5847.19, -39393.18, -52680.58, -36074.62, -42617.53, -31284.37, -30507.56, 0.00, 0.00, 0.00, 0, -1
207, 6831.01, 5881.93, -39464.04, -52692.83, -36064.02, -42610.80, -31289.02, -30525.78, 0.00, 0.00, 0.00, 0, -1
208, 6834.83, 5884.39, -39534.49, -52725.57, -36066.37, -42626.14, -31289.22, -30546.52, 0.03, 0.93, 0.35, 0, -1
209, 6797.86, 5842.99, -39449.33, -52705.70, -36089.13, -42634.74, -31293.18, -30530.36, 0.00, 0.00, 0.00, 0, -1
210, 6787.73, 5828.37, -39394.86, -52690.70, -36096.66, -42635.44, -31298.68, -30522.89, 0.00, 0.00, 0.00, 0, -1
211, 6814.69, 5860.38, -39457.64, -52702.66, -36079.63, -42629.54, -31298.95, -30537.94, 0.00, 0.00, 0.00, 0, -1
212, 6834.27, 5885.12, -39531.83, -52726.07, -36054.46, -42625.98, -31284.75, -30545.80, 0.00, 0.00, 0.00, 0, -1
213, 6804.16, 5853.56, -39465.11, -52714.00, -36070.60, -42633.31, -31292.49, -30533.17, 0.00, 0.00, 0.00, 0, -1
214, 6793.25, 5838.59, -39375.68, -52683.89, -36075.96, -42622.41, -31283.03, -30509.84, 0.00, 0.00, 0.00, 0, -1
215, 6817.24, 5863.64, -39425.59, -52687.04, -36060.43, -42613.80, -31271.47, -30514.36, 0.00, 0.00, 0.00, 0, -1
216, 6830.49, 5880.05, -39516.81, -52722.78, -36052.22, -42621.73, -31280.66, -30538.09, 0.00, 0.00, 0.00, 0, -1
217, 6804.88, 5853.16, -39490.19, -52725.39, -36065.19, -42625.82, -31282.92, -30530.85, 0.03, 0.93, 0.35, 0, -1
218, 6784.00, 5828.40, -39388.09, -52689.14, -36085.19, -42624.21, -31282.83, -30500.85, 0.00, 0.00, 0.00, 0, -1
219, 6801.95, 5849.76, -39424.09, -52691.46, -36077.05, -42618.00, -31280.68, -30507.25, 0.00, 0.00, 0.00, 0, -1
220, 6819.87, 5872.23, -39520.21, -52723.56, -36072.12, -42623.21, -31293.02, -30537.02, 0.00, 0.00, 0.00, 0, -1
221, 6806.22, 5855.91, -39521.48, -52731.03, -36078.35, -42630.65, -31296.35, -30535.59, 0.00, 0.00, 0.00, 0, -1
222, 6785.79, 5833.34, -39400.87, -52685.45, -36083.87, -42619.63, -31284.71, -30503.00, 0.00, 0.00, 0.00, 0, -1
223, 6798.26, 5847.06, -39414.75, -52681.88, -36075.65, -42613.35, -31291.08, -30511.52, 0.00, 0.00, 0.00, 0, -1
224, 6823.63, 5876.01, -39502.91, -52705.93, -36066.01, -42616.97, -31299.68, -30536.71, 0.00, 0.00, 0.00, 0, -1
225, 6824.79, 5878.26, -39523.63, -52720.77, -36061.57, -42618.94, -31284.15, -30537.64, 0.00, 0.00, 0.00, 0, -1
226, 6792.49, 5840.09, -39405.77, -52685.25, -36082.22, -42616.68, -31281.89, -30510.29, 0.00, 0.00, 0.00, 0, -1
227, 6799.58, 5844.80, -39396.78, -52682.97, -36076.09, -42615.70, -31282.99, -30513.97, 0.03, 0.93, 0.35, 0, -1
228, 6818.04, 5870.51, -39476.38, -52705.68, -36060.56, -42622.12, -31293.85, -30542.63, 0.00, 0.00, 0.00, 0, -1
229, 6823.25, 5872.90, -39526.02, -52724.37, -36062.35, -42628.33, -31294.54, -30551.62, 0.00, 0.00, 0.00, 0, -1
230, 6790.66, 5837.02, -39423.20, -52693.12, -36080.68, -42628.66, -31286.90, -30517.91, 0.00, 0.00, 0.00, 0, -1
231, 6798.77, 5845.38, -39388.22, -52672.71, -36072.36, -42610.09, -31278.16, -30495.00, 0.00, 0.00, 0.00, 0, -1
232, 6806.60, 5858.41, -39465.40, -52700.14, -36074.20, -42615.48, -31296.87, -30525.08, 0.00, 0.00, 0.00, 0, -1
233, 6813.71, 5866.71, -39539.05, -52732.77, -36068.09, -42625.40, -31300.69, -30546.61, 0.00, 0.00, 0.00, 0, -1
234, 6795.49, 5842.83, -39453.42, -52701.32, -36075.13, -42622.07, -31291.01, -30519.83, 0.00, 0.00, 0.00, 0, -1
235, 6793.52, 5841.54, -39385.80, -52674.84, -36073.23, -42611.27, -31273.93, -30498.66, 0.00, 0.00, 0.00, 0, -1
236, 6814.71, 5869.61, -39442.71, -52681.74, -36062.82, -42606.54, -31279.95, -30510.31, 0.00, 0.00, 0.00, 0, -1
237, 6829.35, 5881.86, -39524.39, -52712.54, -36053.12, -42610.96, -31293.65, -30536.66, 0.04, 0.93, 0.35, 0, -1
238, 6803.16, 5850.37, -39464.73, -52703.04, -36068.14, -42617.64, -31292.87, -30528.06, 0.00, 0.00, 0.00, 0, -1
239, 6781.70, 5828.91, -39387.17, -52678.46, -36086.64, -42620.66, -31289.65, -30514.96, 0.00, 0.00, 0.00, 0, -1
240, 6803.92, 5855.35, -39436.68, -52684.85, -36073.70, -42612.93, -31283.34, -30522.33, 0.00, 0.00, 0.00, 0, -1
241, 6824.03, 5879.72, -39522.06, -52712.54, -36064.58, -42617.11, -31291.93, -30543.90, 0.00, 0.00, 0.00, 0, -1
242, 6810.53, 5862.26, -39494.26, -52707.63, -36071.29, -42618.09, -31285.56, -30529.96, 0.00, 0.00, 0.00, 0, -1
243, 6785.94, 5834.21, -39395.44, -52679.66, -36087.36, -42620.28, -31286.67, -30509.06, 0.00, 0.00, 0.00, 0, -1
244, 6795.15, 5848.89, -39437.57, -52690.08, -36089.66, -42622.65, -31302.83, -30528.84, 0.00, 0.00, 0.00, 0, -1
245, 6828.84, 5883.54, -39515.40, -52705.66, -36064.25, -42613.75, -31296.67, -30541.67, 0.00, 0.00, 0.00, 0, -1
246, 6818.62, 5867.29, -39512.29, -52715.98, -36065.75, -42625.42, -31295.82, -30542.54, 0.00, 0.00, 0.00, 0, -1
247, 6788.65, 5835.15, -39399.06, -52681.05, -36076.70, -42623.43, -31294.77, -30517.82, 0.04, 0.93, 0.36, 0, -1
248, 6798.15, 5848.07, -39413.21, -52683.26, -36075.04, -42616.10, -31285.82, -30521.02, 0.00, 0.00, 0.00, 0, -1
249, 6825.53, 5880.94, -39492.09, -52701.14, -36061.97, -42612.17, -31287.30, -30537.80, 0.00, 0.00, 0.00, 0, -1
250, 6819.03, 5869.34, -39522.49, -52719.07, -36063.98, -42618.43, -31292.04, -30541.62, 0.00, 0.00, 0.00, 0, -1
251, 6787.60, 5832.73, -39410.06, -52685.79, -36081.14, -42620.91, -31300.49, -30518.40, 0.00, 0.00, 0.00, 0, -1
252, 6794.28, 5840.87, -39401.48, -52680.80, -36079.78, -42616.10, -31300.33, -30517.37, 0.00, 0.00, 0.00, 0, -1
253, 6812.65, 5866.04, -39477.52, -52701.95, -36068.81, -42615.99, -31289.22, -30532.68, 0.00, 0.00, 0.00, 0, -1
254, 6812.52, 5861.39, -39529.82, -52726.49, -36065.75, -42624.86, -31283.66, -30541.78, 0.00, 0.00, 0.00, 0, -1
255, 6785.68, 5828.40, -39427.16, -52695.00, -36077.14, -42620.44, -31274.25, -30509.39, 0.00, 0.00, 0.00, 0, -1
0, 6791.00, 5838.01, -39389.70, -52673.20, -36069.14, -42607.14, -31268.73, -30496.18, 0.03, 0.94, 0.35, 0, -1
1, 6820.95, 5875.47, -39447.27, -52675.46, -36048.45, -42594.69, -31269.62, -30508.61, 0.00, 0.00, 0.00, 0, -1
2, 6822.76, 5878.53, -39520.05, -52712.16, -36047.08, -42608.28, -31280.28, -30533.49, 0.00, 0.00, 0.00, 0, -1
3, 6788.47, 5837.00, -39445.82, -52696.49, -36075.69, -42621.00, -31284.84, -30519.32, 0.00, 0.00, 0.00, 0, -1
4, 6784.34, 5831.08, -39390.34, -52676.67, -36078.55, -42614.29, -31282.67, -30505.68, 0.00, 0.00, 0.00, 0, -1
5, 6804.41, 5861.05, -39446.85, -52688.69, -36066.39, -42613.84, -31287.57, -30525.31, 0.00, 0.00, 0.00, 0, -1
6, 6819.03, 5872.56, -39526.18, -52720.25, -36066.04, -42625.69, -31299.26, -30554.30, 0.00, 0.00, 0.00, 0, -1
7, 6800.54, 5848.47, -39474.45, -52704.20, -36075.94, -42623.79, -31297.16, -30536.06, 0.00, 0.00, 0.00, 0, -1
8, 6787.11, 5836.51, -39390.05, -52679.46, -36085.04, -42618.45, -31294.92, -30511.58, 0.00, 0.00, 0.00, 0, -1
9, 6803.54, 5856.13, -39438.47, -52689.25, -36080.09, -42621.55, -31302.32, -30532.75, 0.00, 0.00, 0.00, 0, -1
10, 6826.69, 5882.06, -39518.31, -52713.32, -36070.15, -42625.13, -31303.88, -30554.52, 0.03, 0.94, 0.35, 0, -1
11, 6805.88, 5858.46, -39496.83, -52719.02, -36087.96, -42638.68, -31313.50, -30548.55, 0.00, 0.00, 0.00, 0, -1
12, 6795.44, 5842.61, -39387.89, -52680.85, -36085.93, -42622.74, -31304.71, -30519.72, 0.00, 0.00, 0.00, 0, -1
13, 6817.97, 5866.28, -39412.07, -52676.93, -36070.37, -42608.64, -31296.40, -30522.76, 0.00, 0.00, 0.00, 0, -1
14, 6836.10, 5890.76, -39492.89, -52699.33, -36061.52, -42613.31, -31298.95, -30544.15, 0.00, 0.00, 0.00, 0, -1
15, 6814.76, 5867.27, -39499.11, -52714.75, -36074.80, -42631.35, -31294.59, -30544.98, 0.00, 0.00, 0.00, 0, -1
16, 6792.47, 5836.00, -39389.63, -52679.42, -36085.37, -42622.07, -31297.00, -30516.41, 0.00, 0.00, 0.00, 0, -1
17, 6807.20, 5853.27, -39400.40, -52676.09, -36071.22, -42609.22, -31288.80, -30510.96, 0.00, 0.00, 0.00, 0, -1
18, 6825.42, 5876.99, -39471.01, -52701.05, -36056.31, -42615.21, -31276.10, -30529.84, 0.00, 0.00, 0.00, 0, -1
19, 6815.11, 5868.23, -39502.77, -52725.26, -36058.05, -42624.11, -31280.26, -30539.10, 0.00, 0.00, 0.00, 0, -1
20, 6788.43, 5837.47, -39395.04, -52682.39, -36067.02, -42618.09, -31272.12, -30505.73, 0.03, 0.93, 0.36, 0, -1
21, 6795.44, 5845.29, -39388.89, -52670.72, -36059.44, -42610.96, -31272.93, -30500.43, 0.00, 0.00, 0.00, 0, -1
22, 6815.38, 5872.25, -39463.23, -52688.63, -36064.25, -42613.64, -31276.93, -30527.01, 0.00, 0.00, 0.00, 0, -1
23, 6817.19, 5874.57, -39517.10, -52713.14, -36066.01, -42621.31, -31283.32, -30544.51, 0.00, 0.00, 0.00, 0, -1
24, 6785.90, 5836.84, -39425.61, -52689.30, -36082.00, -42623.73, -31287.01, -30521.78, 0.00, 0.00, 0.00, 0, -1
25, 6796.96, 5844.85, -39385.05, -52666.21, -36075.09, -42606.74, -31281.53, -30505.41, 0.00, 0.00, 0.00, 0, -1
26, 6816.81, 5874.13, -39446.63, -52679.39, -36066.86, -42608.68, -31286.99, -30525.66, 0.00, 0.00, 0.00, 0, -1
27, 6832.88, 5892.72, -39506.13, -52701.79, -36053.96, -42610.09, -31277.60, -30536.08, 0.00, 0.00, 0.00, 0, -1
28, 6804.23, 5856.94, -39432.59, -52682.86, -36072.14, -42615.36, -31282.49, -30520.10, 0.00, 0.00, 0.00, 0, -1
29, 6797.57, 5849.70, -39374.74, -52662.92, -36078.38, -42610.94, -31280.08, -30506.38, 0.00, 0.00, 0.00, 0, -1
30, 6819.92, 5877.86, -39427.56, -52672.78, -36068.25, -42607.54, -31278.31, -30520.55, 0.03, 0.93, 0.36, 0, -1
31, 6835.12, 5895.88, -39502.62, -52701.86, -36063.29, -42614.89, -31288.84, -30542.47, 0.00, 0.00, 0.00, 0, -1
32, 6807.51, 5863.94, -39456.91, -52697.97, -36072.38, -42624.55, -31293.04, -30532.86, 0.00, 0.00, 0.00, 0, -1
33, 6798.15, 5850.12, -39375.97, -52669.96, -36073.48, -42611.07, -31282.40, -30508.54, 0.00, 0.00, 0.00, 0, -1
34, 6814.85, 5873.21, -39417.34, -52670.81, -36072.32, -42606.20, -31287.97, -30520.70, 0.00, 0.00, 0.00, 0, -1
35, 6828.88, 5893.40, -39497.77, -52699.60, -36063.76, -42613.22, -31292.20, -30539.34, 0.00, 0.00, 0.00, 0, -1
36, 6808.92, 5869.37, -39476.40, -52703.40, -36070.35, -42616.01, -31288.02, -30527.63, 0.00, 0.00, 0.00, 0, -1
37, 6790.59, 5844.62, -39384.00, -52672.40, -36074.84, -42608.44, -31281.44, -30501.10, 0.00, 0.00, 0.00, 0, -1
38, 6807.40, 5864.11, -39413.19, -52668.69, -36066.82, -42605.73, -31275.88, -30503.89, 0.00, 0.00, 0.00, 0, -1
39, 6814.94, 5880.30, -39496.45, -52700.58, -36071.18, -42617.33, -31292.87, -30540.15, 0.03, 0.93, 0.35, 0, -1
40, 6805.90, 5868.54, -39501.28, -52711.69, -36070.53, -42619.16, -31281.04, -30537.40, 0.00, 0.00, 0.00, 0, -1
41, 6781.65, 5839.10, -39405.59, -52682.25, -36076.74, -42614.00, -31272.39, -30505.35, 0.00, 0.00, 0.00, 0, -1
42, 6802.35, 5857.63, -39413.75, -52667.84, -36057.03, -42595.20, -31263.41, -30491.27, 0.00, 0.00, 0.00, 0, -1
43, 6818.82, 5878.04, -39475.95, -52683.15, -36047.06, -42598.42, -31272.08, -30513.28, 0.00, 0.00, 0.00, 0, -1
44, 6812.30, 5871.87, -39511.04, -52709.01, -36065.57, -42614.94, -31282.25, -30531.81, 0.00, 0.00, 0.00, 0, -1
45, 6784.83, 5836.96, -39415.76, -52680.63, -36077.77, -42617.13, -31270.02, -30507.83, 0.00, 0.00, 0.00, 0, -1
46, 6798.42, 5849.88, -39399.89, -52666.05, -36064.96, -42602.98, -31263.99, -30495.87, 0.00, 0.00, 0.00, 0, -1
47, 6821.19, 5882.82, -39461.73, -52677.20, -36055.53, -42600.48, -31274.45, -30515.25, 0.00, 0.00, 0.00, 0, -1
48, 6819.70, 5883.45, -39514.42, -52704.88, -36062.19, -42614.43, -31285.29, -30537.33, 0.00, 0.00, 0.00, 0, -1
49, 6791.11, 5847.98, -39427.96, -52684.29, -36078.06, -42619.90, -31277.96, -30514.47, 0.03, 0.93, 0.35, 0, -1
50, 6805.15, 5859.80, -39392.13, -52661.94, -36068.02, -42604.91, -31271.14, -30500.23, 0.00, 0.00, 0.00, 0, -1
51, 6824.23, 5885.75, -39452.73, -52672.91, -36065.01, -42607.25, -31286.45, -30521.13, 0.00, 0.00, 0.00, 0, -1
52, 6823.29, 5888.81, -39515.67, -52704.03, -36067.45, -42618.09, -31301.83, -30545.20, 0.00, 0.00, 0.00, 0, -1
53, 6794.80, 5852.36, -39449.06, -52692.71, -36075.42, -42620.86, -31293.02, -30528.41, 0.00, 0.00, 0.00, 0, -1
54, 6795.33, 5845.72, -39388.73, -52674.43, -36074.80, -42610.11, -31281.62, -30510.89, 0.00, 0.00, 0.00, 0, -1
55, 6813.66, 5869.25, -39431.20, -52675.39, -36065.93, -42605.38, -31285.47, -30521.39, 0.00, 0.00, 0.00, 0, -1
56, 6815.34, 5874.73, -39507.31, -52711.00, -36069.14, -42624.44, -31283.97, -30549.00, 0.00, 0.00, 0.00, 0, -1
57, 6800.70, 5855.17, -39459.19, -52697.52, -36072.56, -42621.45, -31275.14, -30529.02, 0.00, 0.00, 0.00, 0, -1
58, 6791.15, 5841.92, -39381.89, -52668.64, -36069.59, -42604.37, -31270.58, -30499.54, 0.00, 0.00, 0.00, 0, -1
59, 6809.53, 5862.71, -39419.29, -52675.46, -36062.50, -42603.47, -31277.22, -30508.95, 0.03, 0.93, 0.35, 0, -1
60, 6834.14, 5889.15, -39489.34, -52696.38, -36050.90, -42607.52, -31276.41, -30526.36, 0.00, 0.00, 0.00, 0, -1
61, 6802.46, 5864.85, -39478.79, -52707.18, -36066.48, -42619.68, -31286.03, -30528.55, 0.00, 0.00, 0.00, 0, -1
62, 6779.57, 5841.92, -39394.77, -52680.69, -36077.97, -42616.37, -31279.12, -30507.13, 0.00, 0.00, 0.00, 0, -1
63, 6809.44, 5869.97, -39414.75, -52666.48, -36057.65, -42597.55, -31264.55, -30502.20, 0.00, 0.00, 0.00, 0, -1
64, 6831.43, 5894.58, -39479.46, -52684.36, -36052.38, -42599.43, -31274.89, -30525.31, 0.00, 0.00, 0.00, 0, -1
65, 6802.89, 5863.67, -39499.62, -52713.64, -36079.80, -42623.50, -31291.32, -30541.74, 0.00, 0.00, 0.00, 0, -1
66, 6786.93, 5842.99, -39403.84, -52677.81, -36084.45, -42614.85, -31283.03, -30511.94, 0.00, 0.00, 0.00, 0, -1
67, 6804.07, 5859.35, -39408.63, -52667.88, -36072.50, -42605.55, -31275.70, -30509.68, 0.00, 0.00, 0.00, 0, -1
68, 6817.24, 5877.66, -39476.06, -52690.79, -36071.69, -42611.86, -31286.67, -30534.72, 0.03, 0.93, 0.35, 0, -1
69, 6810.55, 5870.04, -39508.41, -52711.54, -36075.40, -42621.04, -31292.08, -30545.02, 0.00, 0.00, 0.00, 0, -1
70, 6794.64, 5846.70, -39408.16, -52675.77, -36073.48, -42613.18, -31280.53, -30512.07, 0.00, 0.00, 0.00, 0, -1
71, 6801.28, 5856.67, -39398.52, -52669.34, -36068.81, -42608.05, -31280.53, -30512.57, 0.00, 0.00, 0.00, 0, -1
72, 6809.10, 5880.07, -39461.15, -52688.45, -36065.12, -42611.68, -31295.99, -30540.64, 0.00, 0.00, 0.00, 0, -1
73, 6806.55, 5872.79, -39509.97, -52716.16, -36068.83, -42630.59, -31294.70, -30556.09, 0.00, 0.00, 0.00, 0, -1
74, 6787.17, 5839.37, -39430.78, -52696.70, -36078.98, -42634.14, -31283.41, -30530.11, 0.00, 0.00, 0.00, 0, -1
75, 6783.20, 5833.58, -39397.65, -52686.43, -36076.54, -42630.12, -31283.86, -30525.44, 0.00, 0.00, 0.00, 0, -1
76, 6807.02, 5866.84, -39441.86, -52684.54, -36064.11, -42618.11, -31282.27, -30534.63, 0.00, 0.00, 0.00, 0, -1
77, 6820.05, 5881.15, -39497.12, -52704.16, -36059.71, -42619.88, -31282.54, -30544.87, 0.00, 0.00, 0.00, 0, -1
78, 6794.93, 5847.02, -39438.73, -52697.54, -36076.16, -42623.75, -31283.57, -30528.71, 0.02, 0.93, 0.36, 0, -1
79, 6784.72, 5834.59, -39391.91, -52680.54, -36081.61, -42617.76, -31280.10, -30514.76, 0.00, 0.00, 0.00, 0, -1
80, 6805.26, 5863.71, -39437.53, -52681.59, -36070.02, -42613.15, -31291.61, -30528.55, 0.00, 0.00, 0.00, 0, -1
81, 6813.97, 5878.82, -39507.73, -52709.48, -36076.03, -42622.59, -31310.19, -30557.34, 0.00, 0.00, 0.00, 0, -1
82, 6797.93, 5860.92, -39462.65, -52698.97, -36083.18, -42617.20, -31292.64, -30535.75, 0.00, 0.00, 0.00, 0, -1
83, 6789.59, 5849.63, -39391.75, -52675.86, -36085.73, -42611.41, -31282.94, -30512.72, 0.00, 0.00, 0.00, 0, -1
84, 6813.33, 5877.88, -39426.82, -52673.02, -36075.13, -42606.43, -31285.42, -30519.79, 0.00, 0.00, 0.00, 0, -1
85, 6827.07, 5892.97, -39495.78, -52697.61, -36072.96, -42615.16, -31301.49, -30546.27, 0.00, 0.00, 0.00, 0, -1
86, 6806.80, 5865.52, -39483.19, -52710.53, -36080.65, -42626.38, -31298.54, -30546.43, 0.00, 0.00, 0.00, 0, -1
87, 6794.13, 5845.85, -39394.93, -52678.21, -36079.27, -42618.81, -31281.33, -30516.52, 0.00, 0.00, 0.00, 0, -1
88, 6802.48, 5857.32, -39417.32, -52676.02, -36075.82, -42618.45, -31284.82, -30522.76, 0.02, 0.93, 0.35, 0, -1
89, 6810.33, 5871.27, -39485.83, -52704.94, -36074.35, -42632.84, -31299.39, -30555.71, 0.00, 0.00, 0.00, 0, -1
90, 6800.50, 5863.64, -39493.48, -52716.34, -36072.85, -42636.42, -31292.22, -30555.82, 0.00, 0.00, 0.00, 0, -1
91, 6785.59, 5845.34, -39399.35, -52680.64, -36073.64, -42625.18, -31278.47, -30520.86, 0.00, 0.00, 0.00, 0, -1
92, 6800.70, 5861.74, -39395.82, -52669.65, -36060.34, -42611.74, -31269.66, -30514.58, 0.00, 0.00, 0.00, 0, -1
93, 6811.11, 5881.30, -39458.81, -52688.83, -36061.66, -42614.07, -31278.31, -30539.66, 0.00, 0.00, 0.00, 0, -1
94, 6804.18, 5872.88, -39496.20, -52712.63, -36066.82, -42626.94, -31281.51, -30549.94, 0.00, 0.00, 0.00, 0, -1
95, 6781.83, 5840.51, -39409.57, -52684.98, -36068.56, -42621.58, -31267.41, -30518.09, 0.00, 0.00, 0.00, 0, -1
96, 6799.00, 5857.65, -39390.95, -52667.95, -36063.09, -42609.75, -31260.95, -30506.58, 0.00, 0.00, 0.00, 0, -1
97, 6814.91, 5880.34, -39440.12, -52679.77, -36059.58, -42608.14, -31271.27, -30521.96, 0.00, 0.00, 0.00, 0, -1
98, 6813.77, 5881.57, -39484.76, -52703.87, -36063.82, -42614.61, -31280.17, -30537.09, 0.02, 0.93, 0.35, 0, -1
99, 6796.61, 5855.33, -39407.58, -52680.20, -36068.20, -42612.13, -31265.06, -30511.40, 0.00, 0.00, 0.00, 0, -1
100, 6796.63, 5851.19, -39376.91, -52666.79, -36066.50, -42611.03, -31262.29, -30501.35, 0.00, 0.00, 0.00, 0, -1
101, 6818.65, 5881.28, -39423.29, -52670.32, -36059.53, -42609.62, -31270.92, -30518.13, 0.00, 0.00, 0.00, 0, -1
102, 6825.62, 5892.32, -39480.49, -52696.71, -36064.36, -42616.80, -31283.23, -30541.49, 0.00, 0.00, 0.00, 0, -1
103, 6804.27, 5861.05, -39429.23, -52684.56, -36076.14, -42616.82, -31281.06, -30522.58, 0.00, 0.00, 0.00, 0, -1
104, 6801.01, 5858.86, -39382.39, -52665.00, -36073.41, -42607.25, -31274.18, -30505.08, 0.00, 0.00, 0.00, 0, -1
105, 6819.16, 5886.40, -39420.52, -52662.45, -36067.49, -42598.78, -31284.44, -30514.73, 0.00, 0.00, 0.00, 0, -1
106, 6830.56, 5897.08, -39482.77, -52690.28, -36065.72, -42613.35, -31298.99, -30542.92, 0.00, 0.00, 0.00, 0, -1
107, 6808.10, 5869.52, -39449.62, -52693.72, -36072.81, -42625.96, -31292.15, -30535.66, 0.03, 0.93, 0.36, 0, -1
108, 6800.05, 5855.62, -39381.22, -52668.91, -36070.82, -42618.74, -31271.23, -30509.59, 0.00, 0.00, 0.00, 0, -1
109, 6826.85, 5887.54, -39401.32, -52659.55, -36045.76, -42602.82, -31253.19, -30509.04, 0.00, 0.00, 0.00, 0, -1
110, 6832.01, 5898.36, -39466.27, -52691.84, -36055.13, -42620.82, -31281.87, -30547.14, 0.00, 0.00, 0.00, 0, -1
111, 6808.14, 5871.42, -39466.27, -52707.40, -36073.59, -42638.57, -31289.54, -30549.56, 0.00, 0.00, 0.00, 0, -1
112, 6798.13, 5857.03, -39389.34, -52674.48, -36069.19, -42622.99, -31262.91, -30511.22, 0.00, 0.00, 0.00, 0, -1
113, 6819.92, 5878.71, -39405.97, -52664.42, -36057.27, -42607.92, -31266.63, -30511.00, 0.00, 0.00, 0.00, 0, -1
114, 6825.06, 5893.01, -39465.56, -52690.19, -36064.67, -42620.35, -31284.93, -30544.89, 0.00, 0.00, 0.00, 0, -1
115, 6810.02, 5879.38, -39478.14, -52709.19, -36071.29, -42628.11, -31280.35, -30546.90, 0.00, 0.00, 0.00, 0, -1
116, 6795.96, 5858.01, -39393.63, -52674.19, -36073.39, -42612.23, -31264.21, -30511.67, 0.00, 0.00, 0.00, 0, -1
117, 6808.12, 5873.52, -39390.86, -52663.14, -36063.80, -42604.64, -31260.25, -30506.71, 0.03, 0.93, 0.36, 0, -1
118, 6822.11, 5895.63, -39447.30, -52674.84, -36061.39, -42611.81, -31276.33, -30529.89, 0.00, 0.00, 0.00, 0, -1
119, 6813.28, 5885.01, -39479.06, -52702.19, -36070.08, -42624.53, -31291.50, -30547.01, 0.00, 0.00, 0.00, 0, -1
120, 6792.07, 5855.24, -39399.69, -52679.86, -36067.15, -42617.67, -31273.31, -30512.68, 0.00, 0.00, 0.00, 0, -1
121, 6812.19, 5873.46, -39383.35, -52659.52, -36058.55, -42601.15, -31265.33, -30499.54, 0.00, 0.00, 0.00, 0, -1
122, 6827.16, 5895.70, -39437.15, -52669.80, -36065.43, -42608.13, -31284.48, -30530.20, 0.00, 0.00, 0.00, 0, -1
123, 6825.73, 5895.18, -39480.29, -52695.67, -36066.71, -42622.79, -31284.24, -30541.56, 0.00, 0.00, 0.00, 0, -1
124, 6807.16, 5867.20, -39409.90, -52671.26, -36068.16, -42614.85, -31270.40, -30509.37, 0.00, 0.00, 0.00, 0, -1
125, 6811.34, 5870.46, -39380.17, -52653.09, -36062.10, -42598.60, -31259.12, -30492.52, 0.00, 0.00, 0.00, 0, -1
126, 6821.84, 5890.09, -39423.29, -52661.00, -36058.91, -42603.23, -31271.63, -30516.70, 0.00, 0.00, 0.00, 0, -1
127, 6824.17, 5895.56, -39478.68, -52688.69, -36066.24, -42613.06, -31298.30, -30547.46, 0.03, 0.94, 0.35, 0, -1
128, 6809.10, 5871.76, -39428.50, -52676.29, -36068.92, -42610.89, -31284.19, -30527.18, 0.00, 0.00, 0.00, 0, -1
129, 6808.63, 5866.53, -39383.32, -52657.18, -36060.70, -42604.03, -31258.36, -30502.53, 0.00, 0.00, 0.00, 0, -1
130, 6833.06, 5897.53, -39417.01, -52658.34, -36053.61, -42600.97, -31269.58, -30520.46, 0.00, 0.00, 0.00, 0, -1
131, 6841.82, 5907.36, -39475.35, -52687.39, -36058.50, -42613.20, -31292.42, -30554.16, 0.00, 0.00, 0.00, 0, -1
132, 6817.59, 5880.39, -39453.53, -52696.18, -36073.64, -42620.66, -31290.03, -30546.32, 0.00, 0.00, 0.00, 0, -1
133, 6806.75, 5863.76, -39396.98, -52678.59, -36074.71, -42617.96, -31282.47, -30527.12, 0.00, 0.00, 0.00, 0, -1
134, 6824.66, 5884.16, -39423.36, -52675.48, -36066.04, -42611.66, -31282.07, -30532.17, 0.00, 0.00, 0.00, 0, -1
135, 6837.49, 5903.21, -39469.18, -52690.41, -36054.93, -42613.18, -31281.85, -30547.70, 0.00, 0.00, 0.00, 0, -1
136, 6816.30, 5881.66, -39464.62, -52705.70, -36065.52, -42621.67, -31289.56, -30550.68, 0.00, 0.00, 0.00, 0, -1
137, 6811.56, 5867.51, -39389.65, -52670.18, -36058.64, -42599.90, -31263.56, -30508.48, 0.02, 0.93, 0.35, 0, -1
138, 6828.77, 5884.61, -39395.29, -52658.54, -36048.67, -42586.87, -31259.65, -30500.16, 0.00, 0.00, 0.00, 0, -1
139, 6835.50, 5895.52, -39454.67, -52680.31, -36059.71, -42598.73, -31282.34, -30528.82, 0.00, 0.00, 0.00, 0, -1
140, 6827.07, 5883.85, -39464.37, -52699.51, -36068.83, -42610.92, -31291.64, -30539.68, 0.00, 0.00, 0.00, 0, -1
141, 6812.57, 5862.10, -39393.72, -52676.96, -36071.38, -42604.43, -31284.48, -30512.16, 0.00, 0.00, 0.00, 0, -1
142, 6827.21, 5879.25, -39401.79, -52663.70, -36060.47, -42593.15, -31282.99, -30506.55, 0.00, 0.00, 0.00, 0, -1
143, 6840.39, 5900.01, -39448.30, -52672.82, -36060.47, -42599.16, -31288.75, -30525.80, 0.00, 0.00, 0.00, 0, -1
144, 6833.31, 5892.50, -39479.35, -52700.83, -36068.09, -42612.23, -31291.57, -30539.99, 0.00, 0.00, 0.00, 0, -1
145, 6826.27, 5873.64, -39406.88, -52674.81, -36065.68, -42601.02, -31281.06, -30508.01, 0.00, 0.00, 0.00, 0, -1
146, 6836.15, 5882.67, -39395.80, -52665.20, -36056.29, -42594.54, -31274.22, -30501.32, 0.03, 0.93, 0.35, 0, -1
147, 6838.36, 5898.42, -39438.47, -52679.68, -36063.76, -42607.05, -31287.57, -30533.26, 0.00, 0.00, 0.00, 0, -1
148, 6828.19, 5885.35, -39484.85, -52718.29, -36082.24, -42630.74, -31318.01, -30567.60, 0.00, 0.00, 0.00, 0, -1
149, 6818.06, 5857.21, -39424.99, -52698.93, -36076.63, -42621.76, -31297.89, -30534.14, 0.00, 0.00, 0.00, 0, -1
150, 6825.35, 5859.91, -39393.41, -52677.90, -36064.85, -42607.39, -31287.37, -30513.73, 0.00, 0.00, 0.00, 0, -1
151, 6838.78, 5887.07, -39426.17, -52673.98, -36057.86, -42607.23, -31294.27, -30533.15, 0.00, 0.00, 0.00, 0, -1
152, 6840.30, 5893.91, -39474.50, -52698.50, -36057.36, -42615.75, -31299.93, -30555.19, 0.00, 0.00, 0.00, 0, -1
153, 6819.07, 5866.48, -39437.89, -52698.93, -36066.15, -42621.09, -31292.58, -30538.45, 0.00, 0.00, 0.00, 0, -1
154, 6827.47, 5870.95, -39387.17, -52675.17, -36048.49, -42606.71, -31268.50, -30507.49, 0.00, 0.00, 0.00, 0, -1
155, 6838.38, 5884.14, -39410.44, -52675.04, -36040.31, -42606.49, -31274.07, -30522.33, 0.00, 0.00, 0.00, 0, -1
156, 6849.09, 5902.31, -39456.50, -52694.21, -36042.99, -42609.29, -31282.79, -30543.93, 0.03, 0.92, 0.35, 0, -1
157, 6828.93, 5878.73, -39436.30, -52703.73, -36057.83, -42614.80, -31282.88, -30533.69, 0.00, 0.00, 0.00, 0, -1
158, 6827.18, 5869.46, -39378.50, -52674.43, -36053.32, -42598.47, -31273.04, -30504.70, 0.00, 0.00, 0.00, 0, -1
159, 6830.22, 5880.43, -39401.32, -52675.82, -36053.88, -42597.33, -31273.02, -30516.57, 0.00, 0.00, 0.00, 0, -1
160, 6828.44, 5881.77, -39453.44, -52701.12, -36060.05, -42611.16, -31287.43, -30546.83, 0.00, 0.00, 0.00, 0, -1
161, 6818.24, 5865.01, -39456.10, -52712.52, -36066.73, -42617.69, -31294.99, -30540.21, 0.00, 0.00, 0.00, 0, -1
162, 6820.93, 5861.66, -39387.48, -52677.92, -36053.90, -42594.36, -31273.02, -30495.29, 0.00, 0.00, 0.00, 0, -1
163, 6834.16, 5880.12, -39400.58, -52668.26, -36048.02, -42585.04, -31273.87, -30496.32, 0.00, 0.00, 0.00, 0, -1
164, 6839.23, 5889.62, -39443.59, -52685.63, -36052.78, -42595.32, -31277.38, -30520.93, 0.00, 0.00, 0.00, 0, -1
165, 6821.71, 5869.14, -39461.76, -52713.04, -36067.76, -42613.13, -31293.25, -30537.02, 0.00, 0.00, 0.00, 0, -1
166, 6811.07, 5852.87, -39395.15, -52687.22, -36065.57, -42607.86, -31282.88, -30508.92, 0.03, 0.93, 0.35, 0, -1
167, 6835.12, 5876.56, -39390.41, -52664.71, -36042.79, -42594.46, -31255.43, -30493.77, 0.00, 0.00, 0.00, 0, -1
168, 6845.29, 5890.60, -39428.12, -52675.95, -36046.25, -42605.46, -31272.01, -30522.67, 0.00, 0.00, 0.00, 0, -1
169, 6831.90, 5877.64, -39464.15, -52711.87, -36062.73, -42628.93, -31297.25, -30549.94, 0.00, 0.00, 0.00, 0, -1
170, 6816.10, 5859.91, -39399.95, -52688.40, -36061.75, -42619.28, -31285.91, -30516.63, 0.00, 0.00, 0.00, 0, -1
171, 6828.82, 5871.83, -39389.23, -52669.05, -36048.45, -42603.03, -31275.52, -30508.70, 0.00, 0.00, 0.00, 0, -1
172, 6846.43, 5893.10, -39426.26, -52676.85, -36046.01, -42610.63, -31279.37, -30533.13, 0.00, 0.00, 0.00, 0, -1
173, 6844.71, 5889.91, -39465.67, -52705.86, -36052.22, -42628.51, -31285.71, -30556.80, 0.00, 0.00, 0.00, 0, -1
174, 6820.08, 5859.60, -39415.47, -52698.46, -36054.61, -42619.79, -31277.26, -30531.70, 0.00, 0.00, 0.00, 0, -1
175, 6829.64, 5868.03, -39386.32, -52676.73, -36045.25, -42600.55, -31263.00, -30507.58, 0.03, 0.93, 0.35, 0, -1
176, 6840.44, 5885.30, -39412.20, -52678.50, -36049.72, -42607.52, -31277.44, -30531.56, 0.00, 0.00, 0.00, 0, -1
177, 6835.90, 5883.45, -39457.53, -52705.32, -36059.22, -42623.73, -31294.36, -30560.67, 0.00, 0.00, 0.00, 0, -1
178, 6810.42, 5852.69, -39428.16, -52706.73, -36068.90, -42622.85, -31295.93, -30541.51, 0.00, 0.00, 0.00, 0, -1
179, 6818.35, 5857.52, -39382.99, -52675.28, -36042.66, -42592.84, -31264.26, -30499.40, 0.00, 0.00, 0.00, 0, -1
180, 6828.59, 5876.12, -39407.98, -52674.97, -36041.41, -42591.05, -31268.01, -30510.87, 0.00, 0.00, 0.00, 0, -1
181, 6831.83, 5890.09, -39458.81, -52698.30, -36049.27, -42607.12, -31285.60, -30538.61, 0.00, 0.00, 0.00, 0, -1
182, 6808.94, 5858.15, -39447.05, -52706.26, -36062.66, -42614.14, -31287.01, -30531.36, 0.00, 0.00, 0.00, 0, -1
183, 6807.83, 5847.75, -39398.50, -52681.74, -36055.96, -42595.18, -31268.88, -30495.62, 0.00, 0.00, 0.00, 0, -1
184, 6824.39, 5871.87, -39416.94, -52672.22, -36053.14, -42590.29, -31278.40, -30502.22, 0.00, 0.00, 0.00, 0, -1
185, 6828.90, 5884.41, -39460.02, -52690.97, -36057.48, -42605.78, -31290.34, -30531.45, 0.03, 0.93, 0.35, 0, -1
186, 6813.39, 5866.08, -39455.86, -52706.69, -36065.48, -42618.96, -31292.71, -30533.24, 0.00, 0.00, 0.00, 0, -1
187, 6812.72, 5857.36, -39390.79, -52678.52, -36055.80, -42603.12, -31266.92, -30501.95, 0.00, 0.00, 0.00, 0, -1
188, 6834.54, 5880.83, -39394.77, -52664.38, -36040.13, -42592.16, -31257.44, -30501.23, 0.00, 0.00, 0.00, 0, -1
189, 6842.07, 5895.61, -39435.79, -52678.52, -36043.95, -42607.05, -31276.50, -30530.20, 0.00, 0.00, 0.00, 0, -1
190, 6830.89, 5881.44, -39450.71, -52699.62, -36054.32, -42617.38, -31280.71, -30534.87, 0.00, 0.00, 0.00, 0, -1
191, 6821.80, 5864.65, -39384.60, -52672.09, -36050.14, -42596.43, -31262.76, -30497.61, 0.00, 0.00, 0.00, 0, -1
192, 6833.44, 5884.63, -39383.46, -52658.36, -36034.48, -42581.57, -31248.19, -30491.06, 0.00, 0.00, 0.00, 0, -1
193, 6837.85, 5895.76, -39422.95, -52673.36, -36040.11, -42597.51, -31262.51, -30523.00, 0.00, 0.00, 0.00, 0, -1
194, 6832.03, 5882.13, -39449.84, -52699.13, -36042.16, -42611.32, -31266.09, -30538.83, 0.00, 0.00, 0.00, 0, -1
195, 6807.65, 5851.66, -39394.48, -52688.91, -36051.82, -42613.96, -31269.04, -30522.74, 0.03, 0.93, 0.35, 0, -1
196, 6820.52, 5865.81, -39384.51, -52672.24, -36040.49, -42604.34, -31260.08, -30510.78, 0.00, 0.00, 0.00, 0, -1
197, 6832.44, 5883.94, -39417.41, -52674.84, -36043.41, -42604.52, -31267.77, -30525.82, 0.00, 0.00, 0.00, 0, -1
198, 6830.31, 5886.60, -39453.31, -52701.86, -36046.59, -42613.11, -31281.96, -30543.81, 0.00, 0.00, 0.00, 0, -1
199, 6808.77, 5857.32, -39411.09, -52699.51, -36053.59, -42614.36, -31278.85, -30525.75, 0.00, 0.00, 0.00, 0, -1
200, 6817.75, 5860.94, -39386.95, -52678.99, -36046.57, -42598.54, -31266.54, -30503.51, 0.00, 0.00, 0.00, 0, -1
201, 6829.46, 5882.00, -39415.85, -52675.75, -36043.39, -42596.48, -31269.66, -30510.82, 0.00, 0.00, 0.00, 0, -1
202, 6824.39, 5877.41, -39464.29, -52706.64, -36056.80, -42613.42, -31285.80, -30537.36, 0.00, 0.00, 0.00, 0, -1
203, 6807.07, 5851.11, -39434.27, -52706.80, -36064.29, -42608.50, -31277.89, -30518.31, 0.00, 0.00, 0.00, 0, -1
204, 6809.12, 5852.02, -39395.82, -52687.57, -36057.45, -42594.38, -31270.34, -30496.96, 0.00, 0.00, 0.00, 0, -1
205, 6822.94, 5872.79, -39421.32, -52687.46, -36053.63, -42598.09, -31276.88, -30514.76, 0.03, 0.93, 0.36, 0, -1
206, 6834.96, 5886.13, -39464.69, -52704.70, -36053.95, -42607.18, -31288.24, -30541.80, 0.00, 0.00, 0.00, 0, -1
207, 6811.45, 5860.52, -39447.65, -52713.44, -36064.36, -42614.92, -31288.06, -30532.39, 0.00, 0.00, 0.00, 0, -1
208, 6811.00, 5854.32, -39394.50, -52686.57, -36055.84, -42602.29, -31273.04, -30500.61, 0.00, 0.00, 0.00, 0, -1
209, 6825.69, 5870.93, -39414.42, -52683.82, -36046.63, -42602.11, -31271.59, -30512.57, 0.00, 0.00, 0.00, 0, -1
210, 6838.45, 5890.89, -39456.13, -52698.17, -36043.39, -42612.46, -31273.58, -30537.56, 0.00, 0.00, 0.00, 0, -1
211, 6829.24, 5876.03, -39454.47, -52709.28, -36055.46, -42615.81, -31275.14, -30533.06, 0.00, 0.00, 0.00, 0, -1
212, 6811.85, 5848.69, -39398.19, -52692.27, -36061.66, -42611.86, -31277.69, -30510.91, 0.00, 0.00, 0.00, 0, -1
213, 6832.03, 5871.45, -39402.93, -52681.29, -36047.64, -42604.19, -31280.59, -30514.24, 0.00, 0.00, 0.00, 0, -1
214, 6832.10, 5881.48, -39449.09, -52701.88, -36057.70, -42621.45, -31291.41, -30546.96, 0.02, 0.93, 0.35, 0, -1
215, 6816.28, 5865.77, -39469.13, -52725.84, -36062.62, -42632.55, -31288.15, -30557.22, 0.00, 0.00, 0.00, 0, -1
216, 6811.38, 5853.12, -39402.08, -52700.38, -36055.80, -42614.56, -31267.18, -30517.64, 0.00, 0.00, 0.00, 0, -1
217, 6825.53, 5866.30, -39399.35, -52681.07, -36052.16, -42597.48, -31263.74, -30504.34, 0.00, 0.00, 0.00, 0, -1
218, 6832.35, 5884.10, -39439.96, -52688.31, -36053.65, -42603.25, -31284.10, -30529.58, 0.00, 0.00, 0.00, 0, -1
219, 6823.16, 5878.60, -39473.61, -52715.67, -36059.66, -42620.71, -31295.15, -30549.00, 0.00, 0.00, 0.00, 0, -1
220, 6808.63, 5855.35, -39409.59, -52692.65, -36055.78, -42608.46, -31267.38, -30509.82, 0.00, 0.00, 0.00, 0, -1
221, 6816.23, 5860.00, -39400.98, -52678.39, -36054.30, -42598.27, -31269.91, -30501.61, 0.00, 0.00, 0.00, 0, -1
222, 6827.83, 5876.92, -39434.42, -52686.95, -36054.05, -42606.00, -31277.94, -30525.33, 0.00, 0.00, 0.00, 0, -1
223, 6819.49, 5869.97, -39476.49, -52717.75, -36064.40, -42622.41, -31288.64, -30546.45, 0.00, 0.00, 0.00, 0, -1
224, 6800.65, 5845.23, -39423.65, -52704.43, -36065.63, -42612.95, -31280.08, -30521.35, 0.02, 0.93, 0.35, 0, -1
225, 6813.33, 5854.66, -39385.52, -52678.46, -36052.51, -42595.00, -31266.89, -30499.16, 0.00, 0.00, 0.00, 0, -1
226, 6828.32, 5875.78, -39414.37, -52679.30, -36054.55, -42603.59, -31281.18, -30521.08, 0.00, 0.00, 0.00, 0, -1
227, 6834.43, 5885.15, -39455.61, -52702.17, -36053.25, -42612.53, -31285.04, -30543.23, 0.00, 0.00, 0.00, 0, -1
228, 6809.93, 5853.21, -39420.96, -52702.73, -36059.44, -42614.67, -31276.66, -30531.52, 0.00, 0.00, 0.00, 0, -1
229, 6813.73, 5854.26, -39375.19, -52677.14, -36050.88, -42598.36, -31264.37, -30503.51, 0.00, 0.00, 0.00, 0, -1
230, 6827.50, 5876.34, -39397.90, -52670.01, -36041.98, -42594.46, -31267.90, -30509.86, 0.00, 0.00, 0.00, 0, -1
231, 6827.65, 5880.65, -39452.23, -52698.19, -36048.60, -42609.96, -31289.29, -30540.69, 0.00, 0.00, 0.00, 0, -1
232, 6814.67, 5862.62, -39437.02, -52702.04, -36056.25, -42615.54, -31282.43, -30531.30, 0.00, 0.00, 0.00, 0, -1
233, 6811.98, 5855.37, -39379.46, -52671.93, -36051.73, -42602.25, -31261.30, -30499.11, 0.00, 0.00, 0.00, 0, -1
234, 6838.40, 5885.21, -39395.91, -52659.57, -36040.11, -42590.11, -31266.22, -30503.38, 0.02, 0.92, 0.34, 0, -1
235, 6844.31, 5897.57, -39439.99, -52681.54, -36048.31, -42601.62, -31292.53, -30535.81, 0.00, 0.00, 0.00, 0, -1
236, 6825.98, 5876.12, -39442.25, -52701.03, -36057.50, -42613.58, -31277.29, -30536.51, 0.00, 0.00, 0.00, 0, -1
237, 6814.80, 5859.40, -39385.52, -52679.28, -36061.39, -42607.83, -31268.12, -30512.16, 0.00, 0.00, 0.00, 0, -1
238, 6831.85, 5882.71, -39390.70, -52663.68, -36045.92, -42594.80, -31266.02, -30509.84, 0.00, 0.00, 0.00, 0, -1
239, 6833.80, 5891.05, -39437.77, -52682.39, -36053.27, -42609.44, -31288.26, -30545.49, 0.00, 0.00, 0.00, 0, -1
240, 6826.33, 5876.92, -39459.79, -52708.77, -36063.24, -42623.01, -31294.50, -30556.60, 0.00, 0.00, 0.00, 0, -1
241, 6820.99, 5861.16, -39389.81, -52683.48, -36056.54, -42608.01, -31273.93, -30518.51, 0.00, 0.00, 0.00, 0, -1
242, 6835.03, 5879.29, -39385.32, -52668.96, -36042.88, -42598.94, -31264.08, -30507.54, 0.00, 0.00, 0.00, 0, -1
243, 6848.04, 5899.54, -39427.52, -52678.97, -36047.93, -42606.52, -31283.59, -30535.41, 0.00, 0.00, 0.00, 0, -1
244, 6842.90, 5891.90, -39463.28, -52707.98, -36059.38, -42618.63, -31298.39, -30554.07, 0.03, 0.93, 0.35, 0, -1
245, 6821.33, 5860.25, -39406.53, -52689.86, -36062.93, -42612.75, -31282.85, -30519.27, 0.00, 0.00, 0.00, 0, -1
246, 6838.81, 5876.94, -39380.73, -52659.28, -36042.95, -42591.96, -31261.91, -30495.80, 0.00, 0.00, 0.00, 0, -1
247, 6844.69, 5891.43, -39414.89, -52665.69, -36051.39, -42599.00, -31279.61, -30524.97, 0.00, 0.00, 0.00, 0, -1
248, 6841.18, 5892.72, -39460.62, -52693.16, -36058.66, -42611.18, -31293.27, -30550.10, 0.00, 0.00, 0.00, 0, -1
249, 6820.70, 5866.39, -39407.49, -52680.73, -36054.91, -42608.84, -31273.98, -30521.62, 0.00, 0.00, 0.00, 0, -1
250, 6824.68, 5866.95, -39375.55, -52662.92, -36045.85, -42597.04, -31258.96, -30499.42, 0.00, 0.00, 0.00, 0, -1
251, 6836.91, 5886.06, -39407.51, -52667.04, -36046.14, -42597.33, -31279.01, -30520.08, 0.00, 0.00, 0.00, 0, -1
252, 6828.21, 5881.19, -39454.27, -52702.50, -36059.35, -42618.96, -31300.20, -30555.75, 0.00, 0.00, 0.00, 0, -1
253, 6803.38, 5852.29, -39424.14, -52704.00, -36066.30, -42626.65, -31285.94, -30541.11, 0.03, 0.93, 0.35, 0, -1
254, 6810.78, 5859.58, -39373.11, -52672.31, -36048.56, -42602.91, -31260.17, -30504.90, 0.00, 0.00, 0.00, 0, -1
255, 6837.35, 5890.96, -39392.36, -52659.88, -36035.73, -42587.98, -31260.30, -30507.25, 0.00, 0.00, 0.00, 0, -1
0, 6846.54, 5903.32, -39440.19, -52679.24, -36036.91, -42596.99, -31270.67, -30530.18, 0.00, 0.00, 0.00, 0, -1
1, 6824.12, 5878.35, -39426.84, -52690.26, -36046.07, -42606.25, -31279.52, -30528.21, 0.00, 0.00, 0.00, 0, -1
2, 6813.26, 5863.62, -39368.95, -52671.08, -36044.11, -42596.97, -31258.47, -30500.97, 0.00, 0.00, 0.00, 0, -1
3, 6838.20, 5891.47, -39379.35, -52662.16, -36033.83, -42583.56, -31249.79, -30498.91, 0.00, 0.00, 0.00, 0, -1
4, 6837.91, 5894.56, -39436.39, -52690.41, -36048.49, -42604.08, -31280.62, -30537.44, 0.00, 0.00, 0.00, 0, -1
5, 6826.31, 5878.69, -39442.96, -52694.26, -36052.38, -42607.50, -31292.69, -30538.83, 0.00, 0.00, 0.00, 0, -1
6, 6820.66, 5868.36, -39369.58, -52663.10, -36044.45, -42586.46, -31266.58, -30498.89, 0.00, 0.00, 0.00, 0, -1
7, 6830.25, 5882.11, -39376.13, -52657.02, -36037.09, -42578.11, -31254.46, -30498.48, 0.03, 0.93, 0.35, 0, -1
8, 6838.61, 5899.90, -39422.89, -52668.69, -36040.31, -42587.71, -31268.21, -30522.33, 0.00, 0.00, 0.00, 0, -1
9, 6834.81, 5889.57, -39445.44, -52689.96, -36048.91, -42599.92, -31270.76, -30528.12, 0.00, 0.00, 0.00, 0, -1
10, 6814.53, 5862.80, -39378.79, -52671.50, -36054.79, -42596.07, -31260.01, -30499.27, 0.00, 0.00, 0.00, 0, -1
11, 6822.22, 5874.28, -39378.21, -52660.37, -36046.01, -42585.41, -31256.92, -30494.13, 0.00, 0.00, 0.00, 0, -1
12, 6838.02, 5898.80, -39414.06, -52665.00, -36036.87, -42581.46, -31262.18, -30510.62, 0.00, 0.00, 0.00, 0, -1
13, 6833.40, 5897.55, -39447.07, -52687.02, -36038.16, -42592.28, -31260.63, -30521.71, 0.00, 0.00, 0.00, 0, -1
14, 6816.92, 5870.08, -39386.05, -52669.58, -36052.65, -42594.24, -31262.58, -30504.43, 0.00, 0.00, 0.00, 0, -1
15, 6825.24, 5871.92, -39371.68, -52658.29, -36051.91, -42587.09, -31257.19, -30495.24, 0.00, 0.00, 0.00, 0, -1
16, 6842.74, 5897.26, -39400.47, -52655.43, -36038.70, -42580.07, -31245.97, -30497.97, 0.00, 0.00, 0.00, 0, -1
17, 6837.80, 5898.94, -39445.98, -52683.48, -36045.07, -42596.12, -31265.44, -30525.42, 0.03, 0.93, 0.35, 0, -1
18, 6817.15, 5869.10, -39394.43, -52672.78, -36051.15, -42595.81, -31260.39, -30505.50, 0.00, 0.00, 0.00, 0, -1
19, 6831.61, 5877.93, -39356.32, -52645.57, -36032.78, -42574.71, -31245.17, -30482.73, 0.00, 0.00, 0.00, 0, -1
20, 6840.80, 5895.90, -39389.29, -52648.71, -36035.64, -42582.89, -31253.53, -30504.63, 0.00, 0.00, 0.00, 0, -1
21, 6844.42, 5905.53, -39437.02, -52672.20, -36034.81, -42591.85, -31262.40, -30524.53, 0.00, 0.00, 0.00, 0, -1
22, 6818.31, 5872.45, -39404.47, -52673.94, -36046.32, -42595.79, -31267.25, -30512.19, 0.00, 0.00, 0.00, 0, -1
23, 6812.41, 5862.59, -39360.41, -52655.93, -36042.32, -42586.40, -31253.21, -30490.62, 0.00, 0.00, 0.00, 0, -1
24, 6833.46, 5890.40, -39388.20, -52648.97, -36028.15, -42575.07, -31248.83, -30495.78, 0.00, 0.00, 0.00, 0, -1
25, 6832.24, 5894.29, -39441.82, -52679.08, -36038.34, -42590.73, -31267.43, -30524.79, 0.00, 0.00, 0.00, 0, -1
26, 6811.11, 5866.55, -39434.71, -52690.68, -36050.50, -42601.60, -31267.68, -30516.77, 0.04, 0.94, 0.34, 0, -1
27, 6815.07, 5865.05, -39364.35, -52648.79, -36032.17, -42580.32, -31235.67, -30473.74, 0.00, 0.00, 0.00, 0, -1
28, 6824.05, 5877.59, -39384.00, -52652.91, -36033.54, -42585.68, -31241.63, -30493.14, 0.00, 0.00, 0.00, 0, -1
29, 6835.30, 5896.95, -39434.87, -52676.78, -36038.57, -42598.51, -31266.65, -30526.98, 0.00, 0.00, 0.00, 0, -1
30, 6817.64, 5877.28, -39440.68, -52692.78, -36053.86, -42609.33, -31276.62, -30532.30, 0.00, 0.00, 0.00, 0, -1
31, 6817.71, 5868.67, -39365.31, -52651.97, -36040.55, -42590.27, -31241.97, -30486.75, 0.00, 0.00, 0.00, 0, -1
32, 6835.41, 5888.97, -39364.28, -52642.25, -36026.12, -42582.62, -31236.23, -30484.92, 0.00, 0.00, 0.00, 0, -1
33, 6843.08, 5904.39, -39414.59, -52662.86, -36032.51, -42596.03, -31265.66, -30522.92, 0.00, 0.00, 0.00, 0, -1
34, 6832.08, 5891.61, -39440.97, -52684.82, -36045.32, -42604.59, -31277.18, -30532.39, 0.00, 0.00, 0.00, 0, -1
35, 6823.23, 5876.70, -39367.10, -52648.91, -36035.73, -42580.61, -31247.78, -30486.15, 0.00, 0.00, 0.00, 0, -1
36, 6829.26, 5882.00, -39364.68, -52642.58, -36033.11, -42577.01, -31239.49, -30483.80, 0.04, 0.93, 0.34, 0, -1
37, 6834.74, 5896.08, -39409.68, -52660.17, -36033.83, -42586.96, -31259.07, -30517.08, 0.00, 0.00, 0.00, 0, -1
38, 6832.32, 5896.17, -39444.52, -52684.76, -36031.97, -42598.89, -31269.35, -30533.31, 0.00, 0.00, 0.00, 0, -1
39, 6825.13, 5879.09, -39378.21, -52657.24, -36031.14, -42586.13, -31247.78, -30494.37, 0.00, 0.00, 0.00, 0, -1
40, 6823.92, 5875.74, -39359.41, -52646.20, -36029.25, -42578.91, -31237.86, -30481.90, 0.00, 0.00, 0.00, 0, -1
41, 6842.45, 5905.40, -39396.54, -52649.84, -36020.19, -42577.43, -31241.08, -30497.63, 0.00, 0.00, 0.00, 0, -1
42, 6837.87, 5903.30, -39443.68, -52680.89, -36033.56, -42594.51, -31261.98, -30524.30, 0.00, 0.00, 0.00, 0, -1
43, 6812.43, 5866.53, -39398.82, -52671.75, -36045.38, -42599.34, -31257.82, -30504.41, 0.00, 0.00, 0.00, 0, -1
44, 6817.53, 5866.30, -39363.36, -52655.97, -36036.91, -42590.80, -31243.18, -30487.87, 0.00, 0.00, 0.00, 0, -1
45, 6838.72, 5894.62, -39388.73, -52652.08, -36021.38, -42582.39, -31241.52, -30501.84, 0.00, 0.00, 0.00, 0, -1
46, 6827.85, 5887.11, -39446.96, -52691.13, -36045.36, -42606.78, -31270.42, -30538.18, 0.03, 0.93, 0.34, 0, -1
47, 6809.17, 5867.82, -39416.03, -52679.66, -36051.91, -42599.50, -31268.23, -30514.82, 0.00, 0.00, 0.00, 0, -1
48, 6813.75, 5871.04, -39353.93, -52641.82, -36029.80, -42575.24, -31239.09, -30476.36, 0.00, 0.00, 0.00, 0, -1
49, 6823.23, 5886.47, -39382.97, -52648.44, -36029.67, -42580.09, -31240.32, -30491.20, 0.00, 0.00, 0.00, 0, -1
50, 6827.07, 5894.40, -39439.90, -52677.85, -36040.93, -42595.85, -31265.15, -30527.86, 0.00, 0.00, 0.00, 0, -1
51, 6803.74, 5865.16, -39432.10, -52690.48, -36057.90, -42609.38, -31277.13, -30529.11, 0.00, 0.00, 0.00, 0, -1
52, 6799.67, 5856.58, -39367.03, -52663.55, -36051.04, -42594.80, -31258.60, -30495.15, 0.00, 0.00, 0.00, 0, -1
53, 6822.04, 5881.06, -39377.45, -52656.93, -36033.49, -42581.28, -31243.18, -30493.84, 0.00, 0.00, 0.00, 0, -1
54, 6829.89, 5891.67, -39427.98, -52683.08, -36043.04, -42596.88, -31264.37, -30527.07, 0.00, 0.00, 0.00, 0, -1
55, 6815.05, 5874.55, -39436.72, -52692.83, -36054.32, -42607.50, -31280.06, -30530.34, 0.00, 0.00, 0.00, 0, -1
56, 6815.14, 5870.93, -39358.67, -52649.69, -36037.83, -42580.59, -31248.27, -30479.15, 0.03, 0.92, 0.34, 0, -1
57, 6823.56, 5884.10, -39365.55, -52645.04, -36033.34, -42573.57, -31248.54, -30482.55, 0.00, 0.00, 0.00, 0, -1
58, 6826.40, 5891.54, -39414.21, -52667.73, -36041.00, -42590.22, -31261.98, -30520.68, 0.00, 0.00, 0.00, 0, -1
59, 6823.29, 5885.46, -39438.51, -52684.96, -36040.89, -42596.54, -31264.26, -30527.47, 0.00, 0.00, 0.00, 0, -1
60, 6810.08, 5869.97, -39360.10, -52650.76, -36037.31, -42579.18, -31239.06, -30483.17, 0.00, 0.00, 0.00, 0, -1
61, 6825.73, 5885.84, -39351.30, -52636.66, -36021.04, -42566.21, -31232.14, -30474.05, 0.00, 0.00, 0.00, 0, -1
62, 6838.25, 5904.73, -39399.46, -52650.45, -36030.00, -42578.93, -31249.23, -30507.04, 0.00, 0.00, 0.00, 0, -1
63, 6827.16, 5896.84, -39443.86, -52681.92, -36042.79, -42597.37, -31263.00, -30530.09, 0.00, 0.00, 0.00, 0, -1
64, 6804.79, 5866.64, -39375.86, -52658.83, -36044.96, -42590.93, -31245.30, -30494.24, 0.00, 0.00, 0.00, 0, -1
65, 6810.73, 5870.10, -39351.27, -52642.85, -36040.36, -42581.39, -31240.32, -30481.34, 0.03, 0.92, 0.35, 0, -1
66, 6825.86, 5894.02, -39388.11, -52649.58, -36039.75, -42585.44, -31252.23, -30504.81, 0.00, 0.00, 0.00, 0, -1
67, 6823.29, 5896.14, -39436.21, -52679.57, -36045.61, -42600.32, -31270.27, -30530.67, 0.00, 0.00, 0.00, 0, -1
68, 6812.92, 5876.70, -39381.74, -52658.83, -36044.54, -42592.86, -31266.36, -30502.82, 0.00, 0.00, 0.00, 0, -1
69, 6807.18, 5867.31, -39338.44, -52637.44, -36038.36, -42584.36, -31252.50, -30486.41, 0.00, 0.00, 0.00, 0, -1
70, 6832.88, 5900.84, -39364.44, -52633.53, -36023.01, -42573.50, -31235.82, -30491.67, 0.00, 0.00, 0.00, 0, -1
71, 6833.78, 5904.17, -39421.70, -52663.93, -36027.37, -42587.58, -31242.17, -30511.81, 0.00, 0.00, 0.00, 0, -1
72, 6810.02, 5874.13, -39398.23, -52665.71, -36035.30, -42592.19, -31242.08, -30497.05, 0.00, 0.00, 0.00, 0, -1
73, 6808.32, 5869.23, -39338.06, -52636.43, -36027.30, -42575.85, -31233.37, -30472.04, 0.00, 0.00, 0.00, 0, -1
74, 6831.61, 5901.22, -39362.80, -52633.51, -36023.57, -42570.39, -31235.58, -30484.85, 0.00, 0.00, 0.00, 0, -1
75, 6835.52, 5904.10, -39425.05, -52664.48, -36036.73, -42589.08, -31252.25, -30521.78, 0.03, 0.93, 0.36, 0, -1
76, 6828.08, 5889.01, -39412.20, -52662.88, -36032.29, -42584.00, -31243.40, -30506.64, 0.00, 0.00, 0.00, 0, -1
77, 6824.30, 5883.78, -39333.70, -52626.33, -36019.88, -42564.02, -31220.89, -30461.45, 0.00, 0.00, 0.00, 0, -1
78, 6830.80, 5897.42, -39353.80, -52631.90, -36024.93, -42566.41, -31232.11, -30476.80, 0.00, 0.00, 0.00, 0, -1
79, 6830.11, 5900.70, -39417.95, -52663.05, -36035.05, -42586.80, -31255.58, -30519.23, 0.00, 0.00, 0.00, 0, -1
80, 6820.93, 5886.47, -39425.04, -52672.27, -36040.29, -42591.67, -31258.18, -30517.64, 0.00, 0.00, 0.00, 0, -1
81, 6804.85, 5867.31, -39346.64, -52643.79, -36044.00, -42580.18, -31241.72, -30480.34, 0.00, 0.00, 0.00, 0, -1
82, 6828.46, 5892.34, -39347.16, -52625.01, -36025.45, -42563.11, -31228.47, -30470.50, 0.00, 0.00, 0.00, 0, -1
83, 6840.15, 5909.06, -39397.63, -52641.06, -36026.36, -42576.16, -31243.96, -30503.80, 0.00, 0.00, 0.00, 0, -1
84, 6826.20, 5896.59, -39429.84, -52669.47, -36038.43, -42595.16, -31260.50, -30522.07, 0.00, 0.00, 0.00, 0, -1
85, 6812.54, 5878.58, -39352.28, -52633.35, -36037.92, -42577.19, -31245.55, -30478.28, 0.03, 0.92, 0.36, 0, -1
86, 6827.59, 5891.88, -39342.22, -52618.66, -36025.80, -42562.17, -31238.13, -30468.67, 0.00, 0.00, 0.00, 0, -1
87, 6842.27, 5914.29, -39390.05, -52630.96, -36018.16, -42562.95, -31236.58, -30491.20, 0.00, 0.00, 0.00, 0, -1
88, 6830.89, 5907.36, -39434.67, -52661.25, -36030.14, -42577.75, -31241.28, -30508.28, 0.00, 0.00, 0.00, 0, -1
89, 6809.59, 5880.70, -39366.50, -52641.29, -36041.32, -42577.25, -31246.44, -30488.38, 0.00, 0.00, 0.00, 0, -1
90, 6818.33, 5886.76, -39338.93, -52623.98, -36030.70, -42565.14, -31232.52, -30475.84, 0.00, 0.00, 0.00, 0, -1
91, 6831.54, 5903.63, -39387.73, -52635.70, -36030.16, -42573.23, -31243.56, -30499.38, 0.00, 0.00, 0.00, 0, -1
92, 6839.12, 5910.47, -39443.27, -52666.23, -36032.06, -42586.55, -31258.44, -30526.54, 0.00, 0.00, 0.00, 0, -1
93, 6816.86, 5885.12, -39390.81, -52653.71, -36042.39, -42589.55, -31255.94, -30508.30, 0.00, 0.00, 0.00, 0, -1
94, 6812.95, 5879.38, -39345.04, -52639.32, -36038.10, -42585.75, -31241.52, -30489.21, 0.00, 0.00, 0.00, 0, -1
95, 6826.00, 5897.80, -39384.09, -52652.86, -36035.46, -42590.27, -31250.22, -30507.74, 0.03, 0.92, 0.36, 0, -1
96, 6823.92, 5897.87, -39448.57, -52694.32, -36046.66, -42608.57, -31275.28, -30541.42, 0.00, 0.00, 0.00, 0, -1
97, 6804.68, 5868.54, -39411.96, -52684.85, -36051.71, -42606.94, -31266.09, -30523.59, 0.00, 0.00, 0.00, 0, -1
98, 6800.54, 5862.15, -39343.81, -52651.57, -36040.62, -42590.96, -31254.69, -30496.23, 0.00, 0.00, 0.00, 0, -1
99, 6813.91, 5887.43, -39371.77, -52651.59, -36033.78, -42585.93, -31247.29, -30501.68, 0.00, 0.00, 0.00, 0, -1
100, 6820.81, 5902.02, -39434.85, -52677.07, -36029.76, -42592.90, -31244.72, -30520.55, 0.00, 0.00, 0.00, 0, -1
101, 6809.44, 5880.83, -39421.73, -52677.09, -36035.91, -42592.81, -31242.44, -30509.35, 0.00, 0.00, 0.00, 0, -1
102, 6809.70, 5873.88, -39339.34, -52634.91, -36029.13, -42573.70, -31226.15, -30471.93, 0.00, 0.00, 0.00, 0, -1
103, 6820.77, 5890.00, -39362.80, -52635.72, -36025.80, -42573.23, -31229.50, -30482.46, 0.00, 0.00, 0.00, 0, -1
104, 6831.12, 5910.09, -39424.14, -52657.94, -36022.72, -42584.23, -31239.11, -30509.77, 0.03, 0.92, 0.36, 0, -1
105, 6825.31, 5903.23, -39426.60, -52664.33, -36020.75, -42584.12, -31230.79, -30500.79, 0.00, 0.00, 0.00, 0, -1
106, 6806.42, 5879.69, -39340.05, -52634.91, -36028.46, -42576.92, -31226.21, -30470.66, 0.00, 0.00, 0.00, 0, -1
107, 6823.05, 5898.83, -39342.15, -52626.51, -36019.63, -42565.30, -31219.44, -30469.54, 0.00, 0.00, 0.00, 0, -1
108, 6829.71, 5907.52, -39405.03, -52652.28, -36023.88, -42581.19, -31243.92, -30507.09, 0.00, 0.00, 0.00, 0, -1
109, 6817.73, 5893.62, -39438.80, -52677.36, -36033.67, -42598.67, -31255.18, -30523.68, 0.00, 0.00, 0.00, 0, -1
110, 6800.18, 5868.81, -39350.22, -52641.89, -36038.95, -42588.32, -31234.13, -30483.58, 0.00, 0.00, 0.00, 0, -1
111, 6811.69, 5878.87, -39337.71, -52633.48, -36031.57, -42579.56, -31231.09, -30475.24, 0.00, 0.00, 0.00, 0, -1
112, 6833.89, 5907.52, -39391.39, -52644.88, -36025.24, -42581.05, -31243.51, -30499.11, 0.00, 0.00, 0.00, 0, -1
113, 6822.38, 5897.42, -39441.17, -52677.81, -36040.22, -42600.34, -31268.23, -30528.95, 0.00, 0.00, 0.00, 0, -1
114, 6798.39, 5867.06, -39366.20, -52656.48, -36048.98, -42595.92, -31259.67, -30502.46, 0.02, 0.92, 0.35, 0, -1
115, 6805.90, 5871.22, -39333.37, -52640.28, -36038.68, -42586.26, -31239.06, -30485.07, 0.00, 0.00, 0.00, 0, -1
116, 6821.22, 5897.33, -39387.01, -52654.88, -36033.47, -42588.79, -31249.21, -30506.93, 0.00, 0.00, 0.00, 0, -1
117, 6818.06, 5896.86, -39451.36, -52686.66, -36036.46, -42602.40, -31267.45, -30535.95, 0.00, 0.00, 0.00, 0, -1
118, 6810.53, 5878.58, -39382.48, -52653.80, -36027.93, -42585.82, -31242.35, -30498.64, 0.00, 0.00, 0.00, 0, -1
119, 6815.07, 5882.33, -39318.37, -52623.45, -36017.33, -42571.11, -31216.78, -30470.14, 0.00, 0.00, 0.00, 0, -1
120, 6821.06, 5898.49, -39363.12, -52638.22, -36020.21, -42579.09, -31230.41, -30492.52, 0.00, 0.00, 0.00, 0, -1
121, 6815.63, 5896.26, -39439.50, -52681.32, -36031.73, -42602.73, -31251.60, -30528.32, 0.00, 0.00, 0.00, 0, -1
122, 6799.53, 5872.00, -39402.35, -52670.99, -36033.02, -42598.22, -31238.62, -30508.25, 0.00, 0.00, 0.00, 0, -1
123, 6789.27, 5856.22, -39328.47, -52644.17, -36038.48, -42590.93, -31225.41, -30485.86, 0.00, 0.00, 0.00, 0, -1
124, 6811.05, 5883.94, -39364.48, -52645.00, -36030.00, -42584.92, -31232.58, -30498.22, 0.02, 0.92, 0.35, 0, -1
125, 6821.51, 5897.57, -39438.73, -52677.23, -36034.41, -42598.00, -31254.35, -30526.56, 0.00, 0.00, 0.00, 0, -1
126, 6803.29, 5871.04, -39433.37, -52689.00, -36048.54, -42609.60, -31264.12, -30526.25, 0.00, 0.00, 0.00, 0, -1
127, 6792.83, 5862.15, -39339.20, -52649.51, -36038.88, -42593.73, -31240.29, -30494.53, 0.00, 0.00, 0.00, 0, -1
128, 6810.82, 5888.97, -39354.36, -52641.80, -36024.80, -42580.77, -31234.53, -30492.83, 0.00, 0.00, 0.00, 0, -1
129, 6827.32, 5906.45, -39422.35, -52663.64, -36024.44, -42587.20, -31243.76, -30512.34, 0.00, 0.00, 0.00, 0, -1
130, 6812.61, 5886.42, -39437.06, -52684.47, -36041.83, -42603.09, -31253.53, -30519.88, 0.00, 0.00, 0.00, 0, -1
131, 6791.82, 5863.49, -39340.57, -52648.73, -36054.10, -42596.07, -31252.59, -30493.66, 0.00, 0.00, 0.00, 0, -1
132, 6803.11, 5878.60, -39343.29, -52641.71, -36045.18, -42585.23, -31248.45, -30493.25, 0.00, 0.00, 0.00, 0, -1
133, 6818.18, 5900.15, -39412.63, -52663.48, -36037.34, -42590.40, -31256.19, -30521.24, 0.02, 0.93, 0.36, 0, -1
134, 6816.48, 5892.05, -39450.47, -52685.27, -36045.32, -42602.13, -31265.87, -30533.29, 0.00, 0.00, 0.00, 0, -1
135, 6801.23, 5868.20, -39348.48, -52645.00, -36045.63, -42591.52, -31254.13, -30497.63, 0.00, 0.00, 0.00, 0, -1
136, 6816.45, 5885.01, -39327.98, -52627.40, -36034.50, -42575.98, -31244.41, -30484.40, 0.00, 0.00, 0.00, 0, -1
137, 6834.94, 5911.30, -39390.01, -52642.47, -36026.47, -42574.95, -31241.21, -30499.33, 0.00, 0.00, 0.00, 0, -1
138, 6831.74, 5909.76, -39444.43, -52671.86, -36025.02, -42584.63, -31241.46, -30517.26, 0.00, 0.00, 0.00, 0, -1
139, 6800.09, 5875.54, -39360.57, -52648.30, -36041.83, -42584.50, -31247.13, -30498.19, 0.00, 0.00, 0.00, 0, -1
140, 6802.48, 5878.98, -39324.09, -52634.27, -36040.49, -42580.61, -31241.68, -30486.97, 0.00, 0.00, 0.00, 0, -1
141, 6823.05, 5901.73, -39378.77, -52645.82, -36026.92, -42581.88, -31242.46, -30502.60, 0.00, 0.00, 0.00, 0, -1
142, 6831.39, 5911.39, -39444.26, -52677.83, -36026.45, -42595.65, -31248.83, -30525.93, 0.00, 0.00, 0.00, 0, -1
143, 6815.90, 5888.77, -39371.55, -52652.82, -36025.78, -42587.49, -31230.59, -30495.67, 0.02, 0.93, 0.36, 0, -1
144, 6812.54, 5877.75, -39308.40, -52629.89, -36020.55, -42576.96, -31225.65, -30475.44, 0.00, 0.00, 0.00, 0, -1
145, 6827.61, 5898.27, -39360.44, -52647.66, -36011.63, -42583.02, -31233.79, -30495.85, 0.00, 0.00, 0.00, 0, -1
146, 6836.30, 5906.36, -39439.74, -52686.28, -36012.55, -42601.57, -31244.94, -30527.45, 0.00, 0.00, 0.00, 0, -1
147, 6815.02, 5879.34, -39401.92, -52677.34, -36026.85, -42600.73, -31250.55, -30517.26, 0.00, 0.00, 0.00, 0, -1
148, 6798.48, 5863.02, -39323.29, -52648.23, -36033.89, -42590.06, -31242.73, -30494.19, 0.00, 0.00, 0.00, 0, -1
149, 6820.72, 5890.31, -39361.55, -52650.18, -36017.73, -42580.00, -31232.20, -30492.45, 0.00, 0.00, 0.00, 0, -1
150, 6828.95, 5902.22, -39444.48, -52686.23, -36018.92, -42591.05, -31247.34, -30519.47, 0.00, 0.00, 0.00, 0, -1
151, 6817.15, 5886.73, -39428.63, -52685.23, -36030.41, -42591.40, -31254.24, -30511.40, 0.00, 0.00, 0.00, 0, -1
152, 6795.33, 5858.53, -39330.33, -52653.06, -36045.34, -42590.75, -31252.05, -30487.62, 0.00, 0.00, 0.00, 0, -1
153, 6815.49, 5883.05, -39355.12, -52651.30, -36030.81, -42581.41, -31239.65, -30488.81, 0.02, 0.92, 0.35, 0, -1
154, 6840.66, 5911.39, -39430.40, -52670.25, -36017.82, -42578.20, -31242.44, -30507.94, 0.00, 0.00, 0.00, 0, -1
155, 6830.67, 5898.87, -39445.78, -52680.80, -36027.46, -42583.49, -31251.45, -30512.10, 0.00, 0.00, 0.00, 0, -1
156, 6803.27, 5866.17, -39338.44, -52645.11, -36044.78, -42579.16, -31251.56, -30485.68, 0.00, 0.00, 0.00, 0, -1
157, 6818.94, 5882.53, -39344.34, -52639.77, -36037.36, -42578.08, -31253.19, -30491.15, 0.00, 0.00, 0.00, 0, -1
158, 6837.55, 5906.09, -39417.95, -52663.46, -36031.19, -42582.91, -31257.39, -30515.20, 0.00, 0.00, 0.00, 0, -1
159, 6832.95, 5898.33, -39455.77, -52690.01, -36036.22, -42589.50, -31258.22, -30522.71, 0.00, 0.00, 0.00, 0, -1
160, 6812.77, 5873.12, -39348.79, -52647.74, -36041.34, -42580.32, -31246.82, -30486.37, 0.00, 0.00, 0.00, 0, -1
161, 6823.29, 5882.29, -39331.20, -52638.04, -36035.55, -42570.50, -31245.53, -30478.37, 0.00, 0.00, 0.00, 0, -1
162, 6839.19, 5902.49, -39401.68, -52657.29, -36026.45, -42571.94, -31247.45, -30501.73, 0.00, 0.00, 0.00, 0, -1
163, 6839.14, 5901.17, -39456.89, -52686.05, -36026.59, -42583.56, -31249.84, -30517.04, 0.03, 0.92, 0.36, 0, -1
164, 6815.00, 5874.08, -39361.36, -52653.51, -36039.62, -42583.22, -31246.02, -30489.48, 0.00, 0.00, 0.00, 0, -1
165, 6824.93, 5884.41, -39308.69, -52626.69, -36030.07, -42568.05, -31236.92, -30470.10, 0.00, 0.00, 0.00, 0, -1
166, 6842.32, 5905.51, -39369.24, -52646.16, -36023.01, -42570.21, -31242.15, -30492.14, 0.00, 0.00, 0.00, 0, -1
167, 6849.49, 5912.66, -39443.43, -52679.02, -36019.19, -42580.77, -31240.18, -30513.13, 0.00, 0.00, 0.00, 0, -1
168, 6823.29, 5881.30, -39372.42, -52658.85, -36030.70, -42584.25, -31239.18, -30495.76, 0.00, 0.00, 0.00, 0, -1
169, 6812.79, 5868.94, -39301.05, -52634.60, -36031.59, -42582.80, -31226.48, -30478.59, 0.00, 0.00, 0.00, 0, -1
170, 6830.63, 5895.09, -39357.26, -52650.29, -36026.92, -42580.65, -31237.43, -30496.25, 0.00, 0.00, 0.00, 0, -1
171, 6846.83, 5913.33, -39437.44, -52683.51, -36017.36, -42585.95, -31243.87, -30517.44, 0.00, 0.00, 0.00, 0, -1
172, 6822.60, 5881.28, -39392.60, -52673.52, -36030.77, -42590.00, -31250.13, -30504.23, 0.02, 0.93, 0.36, 0, -1
173, 6809.75, 5861.68, -39297.18, -52636.46, -36032.53, -42583.25, -31227.98, -30474.84, 0.00, 0.00, 0.00, 0, -1
174, 6827.41, 5884.48, -39340.88, -52644.93, -36020.55, -42583.45, -31223.91, -30488.34, 0.00, 0.00, 0.00, 0, -1
175, 6844.19, 5906.58, -39431.58, -52675.28, -36013.89, -42585.21, -31233.59, -30513.97, 0.00, 0.00, 0.00, 0, -1
176, 6827.63, 5884.66, -39418.21, -52674.72, -36028.95, -42589.79, -31245.81, -30511.67, 0.00, 0.00, 0.00, 0, -1
177, 6805.95, 5856.34, -39309.21, -52636.10, -36038.23, -42586.31, -31242.33, -30484.78, 0.00, 0.00, 0.00, 0, -1
178, 6829.08, 5880.32, -39331.96, -52634.38, -36024.26, -42576.65, -31240.47, -30492.07, 0.00, 0.00, 0.00, 0, -1
179, 6846.96, 5905.53, -39418.39, -52661.80, -36014.49, -42578.30, -31243.29, -30515.67, 0.00, 0.00, 0.00, 0, -1
180, 6827.90, 5888.30, -39440.66, -52680.51, -36031.55, -42589.84, -31259.94, -30521.46, 0.00, 0.00, 0.00, 0, -1
181, 6806.64, 5866.57, -39322.95, -52633.02, -36040.24, -42579.22, -31258.78, -30487.33, 0.00, 0.00, 0.00, 0, -1
182, 6818.62, 5878.44, -39324.03, -52628.93, -36033.45, -42573.07, -31242.91, -30486.08, 0.03, 0.93, 0.35, 0, -1
183, 6839.28, 5900.66, -39407.73, -52655.16, -36026.65, -42578.98, -31243.58, -30510.38, 0.00, 0.00, 0.00, 0, -1
184, 6839.59, 5899.14, -39445.82, -52667.39, -36022.34, -42579.82, -31244.65, -30516.12, 0.00, 0.00, 0.00, 0, -1
185, 6807.13, 5865.30, -39332.74, -52628.54, -36035.46, -42577.55, -31243.40, -30487.51, 0.00, 0.00, 0.00, 0, -1
186, 6809.70, 5868.50, -39313.81, -52624.70, -36032.53, -42576.79, -31242.17, -30484.40, 0.00, 0.00, 0.00, 0, -1
187, 6832.68, 5896.12, -39393.54, -52651.99, -36024.06, -42577.97, -31251.58, -30507.38, 0.00, 0.00, 0.00, 0, -1
188, 6838.67, 5902.20, -39453.29, -52676.82, -36016.68, -42579.27, -31249.23, -30514.18, 0.00, 0.00, 0.00, 0, -1
189, 6819.63, 5876.07, -39351.83, -52636.14, -36019.23, -42570.41, -31226.88, -30476.49, 0.00, 0.00, 0.00, 0, -1
190, 6814.51, 5871.22, -39307.75, -52624.39, -36027.75, -42573.37, -31234.06, -30473.23, 0.00, 0.00, 0.00, 0, -1
191, 6829.31, 5897.26, -39378.68, -52646.61, -36024.13, -42579.16, -31244.70, -30498.48, 0.00, 0.00, 0.00, 0, -1
192, 6840.15, 5904.10, -39457.45, -52683.80, -36021.45, -42589.66, -31253.46, -30520.10, 0.03, 0.92, 0.36, 0, -1
193, 6816.50, 5873.08, -39381.96, -52657.45, -36027.37, -42591.83, -31249.59, -30499.24, 0.00, 0.00, 0.00, 0, -1
194, 6808.74, 5865.57, -39307.29, -52625.37, -36032.62, -42579.16, -31243.31, -30480.34, 0.00, 0.00, 0.00, 0, -1
195, 6824.68, 5886.56, -39367.07, -52643.16, -36031.88, -42577.08, -31257.24, -30504.68, 0.00, 0.00, 0.00, 0, -1
196, 6844.80, 5908.30, -39446.22, -52672.31, -36015.68, -42575.54, -31249.91, -30521.35, 0.00, 0.00, 0.00, 0, -1
197, 6815.96, 5879.56, -39404.00, -52665.69, -36034.83, -42583.92, -31256.01, -30513.08, 0.00, 0.00, 0.00, 0, -1
198, 6794.71, 5855.78, -39309.95, -52632.59, -36042.79, -42583.11, -31258.67, -30494.42, 0.00, 0.00, 0.00, 0, -1
199, 6821.60, 5883.31, -39348.55, -52631.58, -36023.68, -42573.23, -31233.23, -30491.04, 0.00, 0.00, 0.00, 0, -1
200, 6841.35, 5905.55, -39442.27, -52667.95, -36022.61, -42577.14, -31241.97, -30515.18, 0.00, 0.00, 0.00, 0, -1
201, 6818.65, 5884.97, -39435.29, -52671.82, -36036.98, -42585.97, -31252.48, -30517.75, 0.00, 0.00, 0.00, 0, -1
202, 6802.37, 5865.59, -39318.24, -52622.53, -36038.66, -42576.32, -31244.70, -30483.62, 0.04, 0.92, 0.34, 0, -1
203, 6806.20, 5870.93, -39349.11, -52636.32, -36039.82, -42581.21, -31252.90, -30499.07, 0.00, 0.00, 0.00, 0, -1
204, 6825.78, 5895.21, -39444.19, -52668.84, -36032.62, -42585.01, -31259.36, -30523.68, 0.00, 0.00, 0.00, 0, -1
205, 6822.65, 5890.71, -39457.49, -52679.75, -36031.08, -42584.86, -31253.82, -30519.50, 0.00, 0.00, 0.00, 0, -1
206, 6796.23, 5859.53, -39329.99, -52631.81, -36047.37, -42580.83, -31251.54, -30485.23, 0.00, 0.00, 0.00, 0, -1
207, 6804.09, 5866.95, -39335.14, -52632.79, -36050.10, -42581.28, -31251.63, -30493.19, 0.00, 0.00, 0.00, 0, -1
208, 6835.79, 5902.78, -39418.69, -52653.27, -36030.27, -42570.95, -31246.11, -30510.94, 0.00, 0.00, 0.00, 0, -1
209, 6833.69, 5899.14, -39461.55, -52676.31, -36032.26, -42579.45, -31254.96, -30518.98, 0.00, 0.00, 0.00, 0, -1
210, 6807.40, 5868.52, -39343.56, -52632.46, -36043.53, -42577.97, -31249.12, -30487.64, 0.00, 0.00, 0.00, 0, -1
211, 6814.47, 5878.55, -39314.19, -52619.16, -36035.97, -42569.54, -31247.94, -30480.00, 0.03, 0.92, 0.35, 0, -1
212, 6833.31, 5906.02, -39396.40, -52647.12, -36026.52, -42572.98, -31253.10, -30505.35, 0.00, 0.00, 0.00, 0, -1
213, 6840.48, 5907.70, -39462.81, -52679.53, -36024.11, -42579.42, -31250.80, -30523.85, 0.00, 0.00, 0.00, 0, -1
214, 6817.91, 5877.64, -39363.57, -52638.11, -36037.58, -42574.06, -31247.22, -30496.21, 0.00, 0.00, 0.00, 0, -1
215, 6817.35, 5881.39, -39299.59, -52608.63, -36028.57, -42559.48, -31228.89, -30471.26, 0.00, 0.00, 0.00, 0, -1
216, 6826.31, 5893.24, -39376.53, -52643.45, -36030.50, -42574.95, -31245.97, -30502.69, 0.00, 0.00, 0.00, 0, -1
217, 6836.46, 5902.25, -39465.22, -52679.80, -36026.03, -42587.65, -31259.79, -30534.54, 0.00, 0.00, 0.00, 0, -1
218, 6811.40, 5875.56, -39388.42, -52654.05, -36044.00, -42589.28, -31264.39, -30517.42, 0.00, 0.00, 0.00, 0, -1
219, 6811.36, 5873.52, -39297.05, -52617.82, -36043.95, -42572.45, -31247.60, -30484.56, 0.00, 0.00, 0.00, 0, -1
220, 6822.42, 5887.14, -39363.01, -52645.53, -36039.66, -42578.71, -31257.15, -30509.59, 0.00, 0.00, 0.00, 0, -1
221, 6846.88, 5915.10, -39451.88, -52674.34, -36019.63, -42579.20, -31252.63, -30530.43, 0.03, 0.93, 0.35, 0, -1
222, 6826.58, 5891.67, -39405.54, -52660.37, -36030.72, -42582.13, -31253.10, -30511.72, 0.00, 0.00, 0.00, 0, -1
223, 6807.29, 5870.19, -39301.20, -52621.10, -36039.55, -42576.36, -31250.06, -30487.31, 0.00, 0.00, 0.00, 0, -1
224, 6834.09, 5899.25, -39341.68, -52627.16, -36022.83, -42565.90, -31244.50, -30493.93, 0.00, 0.00, 0.00, 0, -1
225, 6844.24, 5914.09, -39447.95, -52676.55, -36025.11, -42583.67, -31267.34, -30532.19, 0.00, 0.00, 0.00, 0, -1
226, 6826.22, 5893.82, -39440.90, -52677.18, -36035.01, -42587.58, -31267.94, -30521.15, 0.00, 0.00, 0.00, 0, -1
227, 6807.87, 5872.72, -39305.74, -52620.83, -36037.79, -42574.46, -31240.52, -30478.53, 0.00, 0.00, 0.00, 0, -1
228, 6821.53, 5889.42, -39329.91, -52627.32, -36026.45, -42571.00, -31232.11, -30486.08, 0.00, 0.00, 0.00, 0, -1
229, 6835.45, 5906.98, -39431.07, -52669.67, -36020.77, -42580.56, -31246.06, -30514.06, 0.00, 0.00, 0.00, 0, -1
230, 6829.75, 5898.22, -39451.86, -52679.48, -36029.20, -42583.07, -31244.59, -30513.48, 0.00, 0.00, 0.00, 0, -1
231, 6811.87, 5876.18, -39316.65, -52621.53, -36037.14, -42567.49, -31239.87, -30475.75, 0.04, 0.93, 0.35, 0, -1
232, 6811.78, 5876.43, -39318.64, -52628.12, -36039.41, -42572.34, -31248.54, -30485.34, 0.00, 0.00, 0.00, 0, -1
233, 6836.12, 5902.18, -39414.39, -52660.75, -36028.55, -42582.33, -31251.78, -30515.81, 0.00, 0.00, 0.00, 0, -1
234, 6841.96, 5906.49, -39463.14, -52679.30, -36025.22, -42585.68, -31250.64, -30522.22, 0.00, 0.00, 0.00, 0, -1
235, 6816.32, 5879.11, -39338.04, -52624.88, -36034.30, -42573.41, -31239.22, -30478.03, 0.00, 0.00, 0.00, 0, -1
236, 6821.06, 5886.51, -39308.38, -52608.65, -36027.77, -42566.08, -31223.75, -30463.77, 0.00, 0.00, 0.00, 0, -1
237, 6839.75, 5905.58, -39395.98, -52644.44, -36022.41, -42573.86, -31237.01, -30497.70, 0.00, 0.00, 0.00, 0, -1
238, 6846.56, 5908.48, -39463.77, -52680.73, -36016.19, -42582.62, -31240.76, -30517.15, 0.00, 0.00, 0.00, 0, -1
239, 6817.13, 5878.29, -39355.59, -52636.50, -36028.35, -42577.14, -31239.04, -30489.10, 0.00, 0.00, 0.00, 0, -1
240, 6811.69, 5876.54, -39293.38, -52609.61, -36028.48, -42569.25, -31240.38, -30476.71, 0.03, 0.93, 0.34, 0, -1
241, 6831.90, 5901.91, -39367.23, -52635.59, -36017.69, -42571.85, -31240.07, -30497.21, 0.00, 0.00, 0.00, 0, -1
242, 6846.72, 5913.65, -39455.23, -52675.55, -36018.83, -42582.93, -31246.55, -30523.88, 0.00, 0.00, 0.00, 0, -1
243, 6819.99, 5885.68, -39380.15, -52644.35, -36034.83, -42579.67, -31249.91, -30503.13, 0.00, 0.00, 0.00, 0, -1
244, 6810.42, 5875.18, -39286.57, -52609.34, -36035.17, -42571.24, -31241.57, -30479.60, 0.00, 0.00, 0.00, 0, -1
245, 6827.21, 5892.30, -39349.37, -52632.23, -36027.37, -42578.30, -31244.34, -30499.89, 0.00, 0.00, 0.00, 0, -1
246, 6840.42, 5906.69, -39451.61, -52675.37, -36020.55, -42587.02, -31252.88, -30528.10, 0.00, 0.00, 0.00, 0, -1
247, 6832.91, 5899.27, -39400.25, -52652.01, -36015.36, -42573.95, -31235.58, -30496.65, 0.00, 0.00, 0.00, 0, -1
248, 6809.93, 5875.78, -39285.74, -52616.09, -36032.13, -42572.45, -31240.12, -30472.18, 0.00, 0.00, 0.00, 0, -1
249, 6821.73, 5883.90, -39338.78, -52636.66, -36028.17, -42576.18, -31247.00, -30494.04, 0.00, 0.00, 0.00, 0, -1
250, 6841.22, 5906.74, -39448.95, -52675.75, -36021.58, -42584.92, -31252.30, -30524.44, 0.03, 0.93, 0.34, 0, -1
251, 6827.47, 5896.03, -39437.13, -52668.20, -36021.46, -42583.27, -31245.10, -30508.99, 0.00, 0.00, 0.00, 0, -1
252, 6806.28, 5872.70, -39301.56, -52618.39, -36030.68, -42575.87, -31237.39, -30476.42, 0.00, 0.00, 0.00, 0, -1
253, 6809.97, 5878.26, -39336.57, -52635.27, -36033.45, -42583.07, -31249.91, -30498.66, 0.00, 0.00, 0.00, 0, -1
254, 6833.71, 5899.65, -39442.02, -52667.39, -36025.09, -42583.38, -31257.37, -30525.78, 0.00, 0.00, 0.00, 0, -1
255, 6831.65, 5894.27, -39461.87, -52676.40, -36027.95, -42586.24, -31254.71, -30522.92, 0.00, 0.00, 0.00, 0, -1
0, 6799.45, 5862.35, -39320.34, -52626.87, -36045.85, -42587.61, -31248.95, -30490.01, 0.00, 0.00, 0.00, 0, -1
1, 6814.40, 5878.93, -39317.48, -52620.34, -36034.97, -42577.32, -31249.93, -30488.72, 0.00, 0.00, 0.00, 0, -1
2, 6840.15, 5908.44, -39413.70, -52650.92, -36017.58, -42578.73, -31239.49, -30509.84, 0.00, 0.00, 0.00, 0, -1
3, 6839.77, 5906.69, -39465.60, -52674.77, -36022.45, -42585.41, -31240.12, -30519.67, 0.00, 0.00, 0.00, 0, -1
4, 6797.81, 5862.37, -39339.89, -52637.95, -36050.52, -42590.82, -31254.46, -30498.19, 0.04, 0.93, 0.35, 0, -1
5, 6807.42, 5870.48, -39308.47, -52622.82, -36042.05, -42584.30, -31245.50, -30489.92, 0.00, 0.00, 0.00, 0, -1
6, 6837.17, 5906.25, -39395.11, -52636.86, -36023.25, -42571.62, -31240.74, -30503.00, 0.00, 0.00, 0.00, 0, -1
7, 6845.20, 5916.51, -39466.41, -52665.74, -36018.02, -42571.58, -31239.94, -30511.96, 0.00, 0.00, 0.00, 0, -1
8, 6809.70, 5879.89, -39353.55, -52629.33, -36035.13, -42579.36, -31244.68, -30492.07, 0.00, 0.00, 0.00, 0, -1
9, 6806.24, 5873.68, -39284.11, -52609.66, -36040.04, -42577.46, -31243.76, -30479.71, 0.00, 0.00, 0.00, 0, -1
10, 6827.54, 5896.81, -39369.71, -52635.16, -36034.07, -42575.89, -31248.36, -30496.52, 0.00, 0.00, 0.00, 0, -1
11, 6846.41, 5914.85, -39462.65, -52666.48, -36014.36, -42573.50, -31242.17, -30511.52, 0.00, 0.00, 0.00, 0, -1
12, 6812.27, 5878.40, -39381.02, -52643.54, -36031.86, -42584.56, -31250.96, -30499.83, 0.00, 0.00, 0.00, 0, -1
13, 6800.88, 5867.85, -39282.95, -52611.69, -36044.29, -42577.73, -31253.59, -30482.06, 0.00, 0.00, 0.00, 0, -1
14, 6827.65, 5898.89, -39346.13, -52621.30, -36026.65, -42569.90, -31240.27, -30491.18, 0.04, 0.93, 0.34, 0, -1
15, 6849.83, 5921.71, -39448.35, -52654.83, -36014.27, -42571.96, -31238.26, -30512.61, 0.00, 0.00, 0.00, 0, -1
16, 6832.17, 5898.04, -39404.27, -52640.68, -36025.33, -42575.02, -31237.41, -30500.34, 0.00, 0.00, 0.00, 0, -1
17, 6808.74, 5871.11, -39281.04, -52605.90, -36044.73, -42576.59, -31246.42, -30485.86, 0.00, 0.00, 0.00, 0, -1
18, 6825.93, 5893.51, -39329.21, -52617.99, -36038.41, -42574.30, -31247.98, -30497.17, 0.00, 0.00, 0.00, 0, -1
19, 6852.82, 5927.64, -39435.50, -52645.89, -36014.83, -42567.33, -31233.52, -30506.89, 0.00, 0.00, 0.00, 0, -1
20, 6837.15, 5909.67, -39427.74, -52650.02, -36020.62, -42571.85, -31233.52, -30499.67, 0.00, 0.00, 0.00, 0, -1
21, 6792.09, 5862.68, -39297.18, -52619.22, -36051.13, -42584.07, -31252.41, -30485.97, 0.00, 0.00, 0.00, 0, -1
22, 6811.54, 5879.98, -39321.37, -52619.22, -36033.89, -42570.77, -31243.16, -30484.52, 0.00, 0.00, 0.00, 0, -1
23, 6848.60, 5922.07, -39421.37, -52641.46, -36011.09, -42562.77, -31232.54, -30497.26, 0.04, 0.93, 0.34, 0, -1
24, 6834.78, 5907.86, -39443.94, -52660.33, -36017.00, -42574.68, -31236.99, -30509.57, 0.00, 0.00, 0.00, 0, -1
25, 6788.60, 5860.87, -39306.59, -52623.96, -36048.11, -42586.20, -31248.86, -30495.65, 0.00, 0.00, 0.00, 0, -1
26, 6799.94, 5874.17, -39303.24, -52616.09, -36037.54, -42574.39, -31245.57, -30491.27, 0.00, 0.00, 0.00, 0, -1
27, 6824.95, 5901.26, -39411.31, -52647.10, -36027.90, -42574.62, -31245.68, -30508.81, 0.00, 0.00, 0.00, 0, -1
28, 6848.17, 5922.94, -39455.23, -52651.16, -36007.00, -42562.17, -31219.20, -30495.36, 0.00, 0.00, 0.00, 0, -1
29, 6804.85, 5876.14, -39317.86, -52612.23, -36036.87, -42572.54, -31235.13, -30481.36, 0.00, 0.00, 0.00, 0, -1
30, 6803.18, 5875.51, -39285.43, -52602.64, -36045.43, -42570.26, -31250.78, -30483.17, 0.00, 0.00, 0.00, 0, -1
31, 6843.75, 5917.49, -39377.63, -52617.57, -36021.11, -42557.21, -31233.92, -30488.70, 0.00, 0.00, 0.00, 0, -1
32, 6849.78, 5929.27, -39458.18, -52651.14, -36016.32, -42562.55, -31236.61, -30505.23, 0.00, 0.00, 0.00, 0, -1
33, 6807.47, 5887.63, -39350.04, -52625.28, -36039.21, -42573.23, -31244.81, -30491.82, 0.04, 0.93, 0.35, 0, -1
34, 6800.23, 5878.64, -39279.52, -52601.14, -36043.15, -42569.95, -31239.74, -30482.95, 0.00, 0.00, 0.00, 0, -1
35, 6827.99, 5909.04, -39366.32, -52619.40, -36030.43, -42564.80, -31239.78, -30494.86, 0.00, 0.00, 0.00, 0, -1
36, 6857.45, 5935.08, -39457.22, -52646.65, -36011.92, -42562.28, -31235.98, -30500.99, 0.00, 0.00, 0.00, 0, -1
37, 6810.73, 5889.24, -39377.94, -52634.87, -36043.71, -42580.21, -31257.30, -30496.92, 0.00, 0.00, 0.00, 0, -1
38, 6788.90, 5868.05, -39278.03, -52606.08, -36056.87, -42577.59, -31258.71, -30486.37, 0.00, 0.00, 0.00, 0, -1
