%OpenBCI Raw EEG Data
%
%Sample Rate = 250.0 Hz
%First Column = SampleIndex
%Other Columns = EEG data in microvolts followed by Accel Data (in G) interleaved with Aux Data
0, -187500.02, -187500.02, -45322.21, -33503.97, 3688.71, 15222.52, -187500.02, -187500.02, -0.03, 0.43, 0.23, 0, -1
1, -187500.02, -187500.02, -44690.48, -30454.97, 6598.57, 5939.80, -187500.02, -187500.02, 0.00, 0.00, 0.00, 0, -1
2, -187500.02, -187500.02, -41920.94, -29758.46, 7460.88, 2074.78, -187500.02, -187500.02, 0.00, 0.00, 0.00, 0, -1
3, -187500.02, -187500.02, -42647.73, -33035.79, 4326.94, 11895.15, -187500.02, -187500.02, 0.00, 0.00, 0.00, 0, -1
4, -187500.02, -187500.02, -45095.76, -33761.35, 3466.51, 15798.28, -187500.02, -187500.02, 0.00, 0.00, 0.00, 0, -1
5, -187500.02, -187500.02, -45041.65, -31049.95, 6025.14, 7819.74, -187500.02, -187500.02, 0.00, 0.00, 0.00, 0, -1
6, -187500.02, -187500.02, -42327.47, -29485.55, 7694.61, 1476.20, -187500.02, -187500.02, -0.08, 0.87, 0.48, 0, -1
7, -187500.02, -187500.02, -42183.42, -32463.90, 4897.22, 9990.74, -187500.02, -187500.02, 0.00, 0.00, 0.00, 0, -1
8, -187500.02, -187500.02, -44770.81, -33915.60, 3342.73, 15966.83, -187500.02, -187500.02, 0.00, 0.00, 0.00, 0, -1
9, -187500.02, -187500.02, -45262.10, -31639.77, 5450.34, 9765.61, -187500.02, -187500.02, 0.00, 0.00, 0.00, 0, -1
10, -187500.02, -187500.02, -42789.44, -29364.09, 7777.85, 1492.85, -187500.02, -187500.02, 0.00, 0.00, 0.00, 0, -1
11, -187500.02, -187500.02, -41855.68, -31863.21, 5487.06, 8043.45, -187500.02, -187500.02, 0.00, 0.00, 0.00, 0, -1
12, -187500.02, -187500.02, -44369.29, -33897.69, 3375.31, 15693.92, -187500.02, -187500.02, 0.00, 0.00, 0.00, 0, -1
13, -187500.02, -187500.02, -45373.61, -32212.37, 4885.55, 11540.18, -187500.02, -187500.02, 0.00, 0.00, 0.00, 0, -1
14, -187500.02, -187500.02, -43355.99, -29499.68, 7594.74, 2195.14, -187500.02, -187500.02, 0.00, 0.00, 0.00, 0, -1
15, -187500.02, -187500.02, -41711.19, -31205.52, 6107.46, 6059.13, -187500.02, -187500.02, 0.00, 0.00, 0.00, 0, -1
16, -187500.02, -187500.02, -43922.52, -33750.71, 3546.28, 14893.64, -187500.02, -187500.02, -0.07, 0.87, 0.48, 0, -1
17, -187500.02, -187500.02, -45386.89, -32736.21, 4390.17, 12989.25, -187500.02, -187500.02, 0.00, 0.00, 0.00, 0, -1
18, -187500.02, -187500.02, -43895.02, -29797.69, 7257.75, 3364.81, -187500.02, -187500.02, 0.00, 0.00, 0.00, 0, -1
19, -187500.02, -187500.02, -41697.07, -30611.12, 6660.75, 4393.21, -187500.02, -187500.02, 0.00, 0.00, 0.00, 0, -1
20, -187500.02, -187500.02, -43444.08, -33500.79, 3828.29, 13902.81, -187500.02, -187500.02, 0.00, 0.00, 0.00, 0, -1
21, -187500.02, -187500.02, -45298.58, -33148.82, 4026.02, 14164.43, -187500.02, -187500.02, 0.00, 0.00, 0.00, 0, -1
22, -187500.02, -187500.02, -44358.06, -30208.67, 6859.44, 4865.84, -187500.02, -187500.02, 0.00, 0.00, 0.00, 0, -1
23, -187500.02, -187500.02, -41876.06, -30161.46, 7083.78, 3095.58, -187500.02, -187500.02, 0.00, 0.00, 0.00, 0, -1
24, -187500.02, -187500.02, -43010.05, -33200.39, 4136.93, 12674.51, -187500.02, -187500.02, 0.00, 0.00, 0.00, 0, -1
25, -187500.02, -187500.02, -45158.17, -33483.96, 3716.07, 15038.39, -187500.02, -187500.02, 0.00, 0.00, 0.00, 0, -1
26, -187500.02, -187500.02, -44782.59, -30706.18, 6351.11, 6558.65, -187500.02, -187500.02, -0.07, 0.87, 0.48, 0, -1
27, -187500.02, -187500.02, -42138.76, -29751.54, 7441.34, 2099.52, -187500.02, -187500.02, 0.00, 0.00, 0.00, 0, -1
28, -187500.02, -187500.02, -42561.07, -32786.97, 4557.21, 11157.41, -187500.02, -187500.02, 0.00, 0.00, 0.00, 0, -1
29, -187500.02, -187500.02, -44931.57, -33696.50, 3530.55, 15516.87, -187500.02, -187500.02, 0.00, 0.00, 0.00, 0, -1
30, -187500.02, -187500.02, -45043.43, -31217.81, 5856.18, 8340.15, -187500.02, -187500.02, 0.00, 0.00, 0.00, 0, -1
31, -187500.02, -187500.02, -42529.27, -29532.80, 7624.49, 1706.58, -187500.02, -187500.02, 0.00, 0.00, 0.00, 0, -1
32, -187500.02, -187500.02, -42174.34, -32255.64, 5071.48, 9385.72, -187500.02, -187500.02, 0.00, 0.00, 0.00, 0, -1
33, -187500.02, -187500.02, -44624.56, -33798.74, 3436.22, 15634.93, -187500.02, -187500.02, 0.00, 0.00, 0.00, 0, -1
34, -187500.02, -187500.02, -45239.06, -31734.85, 5338.92, 10041.01, -187500.02, -187500.02, 0.00, 0.00, 0.00, 0, -1
35, -187500.02, -187500.02, -42933.36, -29405.26, 7707.98, 1728.19, -187500.02, -187500.02, 0.00, 0.00, 0.00, 0, -1
36, -187500.02, -187500.02, -41853.26, -31681.70, 5650.25, 7555.92, -187500.02, -187500.02, -0.07, 0.86, 0.48, 0, -1
37, -187500.02, -187500.02, -44257.05, -33826.57, 3454.22, 15434.62, -187500.02, -187500.02, 0.00, 0.00, 0.00, 0, -1
38, -187500.02, -187500.02, -45368.88, -32321.16, 4788.57, 11865.16, -187500.02, -187500.02, 0.00, 0.00, 0.00, 0, -1
39, -187500.02, -187500.02, -43468.31, -29530.99, 7549.32, 2418.46, -187500.02, -187500.02, 0.00, 0.00, 0.00, 0, -1
40, -187500.02, -187500.02, -41703.84, -31129.86, 6163.67, 5885.84, -187500.02, -187500.02, 0.00, 0.00, 0.00, 0, -1
41, -187500.02, -187500.02, -43885.93, -33747.09, 3530.82, 14918.98, -187500.02, -187500.02, 0.00, 0.00, 0.00, 0, -1
42, -187500.02, -187500.02, -45399.12, -32797.14, 4314.09, 13313.35, -187500.02, -187500.02, 0.00, 0.00, 0.00, 0, -1
43, -187500.02, -187500.02, -43964.09, -29782.85, 7252.09, 3511.35, -187500.02, -187500.02, 0.00, 0.00, 0.00, 0, -1
44, -187500.02, -187500.02, -41668.10, -30500.14, 6747.75, 4087.22, -187500.02, -187500.02, 0.00, 0.00, 0.00, 0, -1
45, -187500.02, -187500.02, -43354.76, -33496.43, 3805.23, 13890.09, -187500.02, -187500.02, -0.06, 0.86, 0.47, 0, -1
46, -187500.02, -187500.02, -45325.07, -33209.19, 3929.39, 14400.18, -187500.02, -187500.02, 0.00, 0.00, 0.00, 0, -1
47, -187500.02, -187500.02, -44400.89, -30201.05, 6820.43, 4949.97, -187500.02, -187500.02, 0.00, 0.00, 0.00, 0, -1
48, -187500.02, -187500.02, -41845.10, -30020.54, 7176.38, 2742.85, -187500.02, -187500.02, 0.00, 0.00, 0.00, 0, -1
49, -187500.02, -187500.02, -42858.48, -33135.92, 4165.02, 12527.50, -187500.02, -187500.02, 0.00, 0.00, 0.00, 0, -1
50, -187500.02, -187500.02, -45125.96, -33516.04, 3649.44, 15285.82, -187500.02, -187500.02, 0.00, 0.00, 0.00, 0, -1
51, -187500.02, -187500.02, -44795.29, -30712.95, 6312.40, 6712.77, -187500.02, -187500.02, 0.00, 0.00, 0.00, 0, -1
52, -187500.02, -187500.02, -42129.04, -29682.20, 7479.41, 1926.07, -187500.02, -187500.02, 0.00, 0.00, 0.00, 0, -1
53, -187500.02, -187500.02, -42465.43, -32752.52, 4562.64, 11045.70, -187500.02, -187500.02, 0.00, 0.00, 0.00, 0, -1
54, -187500.02, -187500.02, -44904.96, -33775.09, 3425.05, 15781.85, -187500.02, -187500.02, 0.00, 0.00, 0.00, 0, -1
55, -187500.02, -187500.02, -45127.34, -31320.76, 5714.54, 8688.03, -187500.02, -187500.02, -0.06, 0.86, 0.48, 0, -1
56, -187500.02, -187500.02, -42542.72, -29458.46, 7646.42, 1559.17, -187500.02, -187500.02, 0.00, 0.00, 0.00, 0, -1
57, -187500.02, -187500.02, -42087.46, -32235.44, 5059.83, 9269.40, -187500.02, -187500.02, 0.00, 0.00, 0.00, 0, -1
58, -187500.02, -187500.02, -44608.22, -33881.13, 3342.32, 15805.83, -187500.02, -187500.02, 0.00, 0.00, 0.00, 0, -1
59, -187500.02, -187500.02, -45315.88, -31870.61, 5184.80, 10406.06, -187500.02, -187500.02, 0.00, 0.00, 0.00, 0, -1
60, -187500.02, -187500.02, -43055.71, -29451.13, 7635.09, 1695.11, -187500.02, -187500.02, 0.00, 0.00, 0.00, 0, -1
61, -187500.02, -187500.02, -41831.47, -31654.61, 5652.11, 7274.51, -187500.02, -187500.02, 0.00, 0.00, 0.00, 0, -1
62, -187500.02, -187500.02, -44226.52, -33898.48, 3363.98, 15476.93, -187500.02, -187500.02, 0.00, 0.00, 0.00, 0, -1
63, -187500.02, -187500.02, -45434.88, -32449.61, 4635.26, 12111.45, -187500.02, -187500.02, 0.00, 0.00, 0.00, 0, -1
64, -187500.02, -187500.02, -43549.55, -29556.31, 7498.92, 2433.79, -187500.02, -187500.02, 0.00, 0.00, 0.00, 0, -1
65, -187500.02, -187500.02, -41664.52, -31061.75, 6223.44, 5560.85, -187500.02, -187500.02, -0.07, 0.86, 0.48, 0, -1
66, -187500.02, -187500.02, -43817.51, -33779.81, 3510.48, 14844.75, -187500.02, -187500.02, 0.00, 0.00, 0.00, 0, -1
67, -187500.02, -187500.02, -45402.96, -32918.57, 4196.50, 13566.73, -187500.02, -187500.02, 0.00, 0.00, 0.00, 0, -1
68, -187500.02, -187500.02, -44065.55, -29866.22, 7158.10, 3648.61, -187500.02, -187500.02, 0.00, 0.00, 0.00, 0, -1
69, -187500.02, -187500.02, -41647.73, -30449.15, 6781.81, 3866.16, -187500.02, -187500.02, 0.00, 0.00, 0.00, 0, -1
70, -187500.02, -187500.02, -43304.22, -33493.80, 3791.64, 13792.10, -187500.02, -187500.02, 0.00, 0.00, 0.00, 0, -1
71, -187500.02, -187500.02, -45279.25, -33270.04, 3854.25, 14628.66, -187500.02, -187500.02, 0.00, 0.00, 0.00, 0, -1
72, -187500.02, -187500.02, -44494.70, -30260.66, 6745.29, 5151.81, -187500.02, -187500.02, 0.00, 0.00, 0.00, 0, -1
73, -187500.02, -187500.02, -41833.50, -29960.52, 7231.42, 2485.65, -187500.02, -187500.02, 0.00, 0.00, 0.00, 0, -1
74, -187500.02, -187500.02, -42845.41, -33174.44, 4135.43, 12381.93, -187500.02, -187500.02, 0.00, 0.00, 0.00, 0, -1
75, -187500.02, -187500.02, -45149.32, -33633.25, 3534.66, 15385.91, -187500.02, -187500.02, -0.06, 0.86, 0.47, 0, -1
76, -187500.02, -187500.02, -44891.02, -30801.37, 6214.70, 6921.89, -187500.02, -187500.02, 0.00, 0.00, 0.00, 0, -1
77, -187500.02, -187500.02, -42129.46, -29572.65, 7573.37, 1612.21, -187500.02, -187500.02, 0.00, 0.00, 0.00, 0, -1
78, -187500.02, -187500.02, -42367.77, -32697.49, 4616.42, 10743.61, -187500.02, -187500.02, 0.00, 0.00, 0.00, 0, -1
79, -187500.02, -187500.02, -44894.62, -33843.58, 3353.12, 15789.67, -187500.02, -187500.02, 0.00, 0.00, 0.00, 0, -1
80, -187500.02, -187500.02, -45208.21, -31428.59, 5601.12, 8843.71, -187500.02, -187500.02, 0.00, 0.00, 0.00, 0, -1
81, -187500.02, -187500.02, -42610.83, -29420.08, 7689.25, 1339.90, -187500.02, -187500.02, 0.00, 0.00, 0.00, 0, -1
82, -187500.02, -187500.02, -41991.26, -32146.77, 5164.86, 8881.31, -187500.02, -187500.02, 0.00, 0.00, 0.00, 0, -1
83, -187500.02, -187500.02, -44552.59, -33920.11, 3298.56, 15802.30, -187500.02, -187500.02, 0.00, 0.00, 0.00, 0, -1
84, -187500.02, -187500.02, -45360.47, -31979.76, 5065.20, 10646.81, -187500.02, -187500.02, -0.06, 0.86, 0.47, 0, -1
85, -187500.02, -187500.02, -43103.46, -29399.38, 7665.46, 1599.47, -187500.02, -187500.02, 0.00, 0.00, 0.00, 0, -1
86, -187500.02, -187500.02, -41729.41, -31543.74, 5753.18, 6920.10, -187500.02, -187500.02, 0.00, 0.00, 0.00, 0, -1
87, -187500.02, -187500.02, -44153.03, -33896.33, 3360.74, 15408.80, -187500.02, -187500.02, 0.00, 0.00, 0.00, 0, -1
88, -187500.02, -187500.02, -45448.83, -32543.67, 4535.12, 12329.78, -187500.02, -187500.02, 0.00, 0.00, 0.00, 0, -1
89, -187500.02, -187500.02, -43656.80, -29595.50, 7442.06, 2474.23, -187500.02, -187500.02, 0.00, 0.00, 0.00, 0, -1
90, -187500.02, -187500.02, -41636.54, -30941.29, 6331.85, 5087.28, -187500.02, -187500.02, 0.00, 0.00, 0.00, 0, -1
91, -187500.02, -187500.02, -43723.12, -33754.35, 3531.31, 14629.80, -187500.02, -187500.02, 0.00, 0.00, 0.00, 0, -1
92, -187500.02, -187500.02, -45402.07, -32984.96, 4122.58, 13673.46, -187500.02, -187500.02, 0.00, 0.00, 0.00, 0, -1
93, -187500.02, -187500.02, -44127.39, -29911.37, 7109.37, 3748.03, -187500.02, -187500.02, 0.00, 0.00, 0.00, 0, -1
94, -187500.02, -187500.02, -41671.70, -30354.16, 6875.69, 3431.24, -187500.02, -187500.02, -0.06, 0.86, 0.48, 0, -1
95, -187500.02, -187500.02, -43216.47, -33476.83, 3819.87, 13478.03, -187500.02, -187500.02, 0.00, 0.00, 0.00, 0, -1
96, -187500.02, -187500.02, -45295.52, -33380.18, 3757.69, 14728.88, -187500.02, -187500.02, 0.00, 0.00, 0.00, 0, -1
97, -187500.02, -187500.02, -44578.74, -30361.07, 6644.97, 5349.51, -187500.02, -187500.02, 0.00, 0.00, 0.00, 0, -1
98, -187500.02, -187500.02, -41859.63, -29846.33, 7327.04, 2184.08, -187500.02, -187500.02, 0.00, 0.00, 0.00, 0, -1
99, -187500.02, -187500.02, -42709.18, -33071.48, 4226.11, 12058.23, -187500.02, -187500.02, 0.00, 0.00, 0.00, 0, -1
100, -187500.02, -187500.02, -45120.37, -33681.17, 3477.80, 15476.66, -187500.02, -187500.02, 0.00, 0.00, 0.00, 0, -1
101, -187500.02, -187500.02, -44969.92, -30901.29, 6100.26, 7120.21, -187500.02, -187500.02, 0.00, 0.00, 0.00, 0, -1
102, -187500.02, -187500.02, -42207.02, -29533.74, 7592.04, 1398.88, -187500.02, -187500.02, 0.00, 0.00, 0.00, 0, -1
103, -187500.02, -187500.02, -42290.97, -32648.39, 4660.03, 10434.26, -187500.02, -187500.02, 0.00, 0.00, 0.00, 0, -1
104, -187500.02, -187500.02, -44883.80, -33928.98, 3270.31, 15938.89, -187500.02, -187500.02, -0.07, 0.86, 0.48, 0, -1
105, -187500.02, -187500.02, -45263.96, -31497.54, 5523.21, 9133.44, -187500.02, -187500.02, 0.00, 0.00, 0.00, 0, -1
106, -187500.02, -187500.02, -42667.96, -29373.52, 7708.92, 1237.59, -187500.02, -187500.02, 0.00, 0.00, 0.00, 0, -1
107, -187500.02, -187500.02, -41941.30, -32101.04, 5185.67, 8661.35, -187500.02, -187500.02, 0.00, 0.00, 0.00, 0, -1
108, -187500.02, -187500.02, -44541.19, -33979.48, 3228.82, 15899.35, -187500.02, -187500.02, 0.00, 0.00, 0.00, 0, -1
109, -187500.02, -187500.02, -45413.56, -32067.94, 4959.02, 10987.71, -187500.02, -187500.02, 0.00, 0.00, 0.00, 0, -1
110, -187500.02, -187500.02, -43190.07, -29384.41, 7645.12, 1607.67, -187500.02, -187500.02, 0.00, 0.00, 0.00, 0, -1
111, -187500.02, -187500.02, -41698.43, -31480.73, 5779.11, 6686.61, -187500.02, -187500.02, 0.00, 0.00, 0.00, 0, -1
112, -187500.02, -187500.02, -44140.27, -33940.79, 3292.95, 15458.80, -187500.02, -187500.02, 0.00, 0.00, 0.00, 0, -1
113, -187500.02, -187500.02, -45474.87, -32598.03, 4461.74, 12588.95, -187500.02, -187500.02, -0.07, 0.85, 0.48, 0, -1
114, -187500.02, -187500.02, -43694.55, -29549.16, 7462.89, 2467.63, -187500.02, -187500.02, 0.00, 0.00, 0.00, 0, -1
115, -187500.02, -187500.02, -41567.63, -30837.94, 6408.04, 4779.16, -187500.02, -187500.02, 0.00, 0.00, 0.00, 0, -1
116, -187500.02, -187500.02, -43669.72, -33788.50, 3473.82, 14647.83, -187500.02, -187500.02, 0.00, 0.00, 0.00, 0, -1
117, -187500.02, -187500.02, -45467.07, -33109.35, 3977.40, 13973.13, -187500.02, -187500.02, 0.00, 0.00, 0.00, 0, -1
118, -187500.02, -187500.02, -44207.66, -29903.59, 7087.87, 3825.01, -187500.02, -187500.02, 0.00, 0.00, 0.00, 0, -1
119, -187500.02, -187500.02, -41640.76, -30283.84, 6924.39, 3149.99, -187500.02, -187500.02, 0.00, 0.00, 0.00, 0, -1
120, -187500.02, -187500.02, -43188.78, -33532.62, 3754.56, 13481.70, -187500.02, -187500.02, 0.00, 0.00, 0.00, 0, -1
121, -187500.02, -187500.02, -45370.46, -33527.70, 3602.16, 15010.65, -187500.02, -187500.02, 0.00, 0.00, 0.00, 0, -1
122, -187500.02, -187500.02, -44691.44, -30423.79, 6562.96, 5533.42, -187500.02, -187500.02, 0.00, 0.00, 0.00, 0, -1
123, -187500.02, -187500.02, -41868.32, -29792.01, 7366.33, 1924.06, -187500.02, -187500.02, -0.07, 0.86, 0.48, 0, -1
124, -187500.02, -187500.02, -42674.33, -33102.15, 4191.13, 11946.02, -187500.02, -187500.02, 0.00, 0.00, 0.00, 0, -1
125, -187500.02, -187500.02, -45127.21, -33766.13, 3380.72, 15655.34, -187500.02, -187500.02, 0.00, 0.00, 0.00, 0, -1
126, -187500.02, -187500.02, -45027.27, -30966.75, 6013.02, 7406.76, -187500.02, -187500.02, 0.00, 0.00, 0.00, 0, -1
127, -187500.02, -187500.02, -42237.60, -29464.13, 7637.05, 1221.77, -187500.02, -187500.02, 0.00, 0.00, 0.00, 0, -1
128, -187500.02, -187500.02, -42211.36, -32577.24, 4709.42, 10163.74, -187500.02, -187500.02, 0.00, 0.00, 0.00, 0, -1
129, -187500.02, -187500.02, -44837.42, -33932.14, 3239.97, 15955.55, -187500.02, -187500.02, 0.00, 0.00, 0.00, 0, -1
130, -187500.02, -187500.02, -45286.84, -31554.38, 5438.92, 9291.37, -187500.02, -187500.02, 0.00, 0.00, 0.00, 0, -1
131, -187500.02, -187500.02, -42719.77, -29339.32, 7713.21, 1132.47, -187500.02, -187500.02, 0.00, 0.00, 0.00, 0, -1
132, -187500.02, -187500.02, -41870.94, -32004.59, 5265.76, 8286.06, -187500.02, -187500.02, 0.00, 0.00, 0.00, 0, -1
133, -187500.02, -187500.02, -44485.74, -34002.12, 3185.21, 15893.65, -187500.02, -187500.02, -0.07, 0.86, 0.48, 0, -1
134, -187500.02, -187500.02, -45450.13, -32162.30, 4832.74, 11244.31, -187500.02, -187500.02, 0.00, 0.00, 0.00, 0, -1
135, -187500.02, -187500.02, -43246.22, -29352.64, 7629.16, 1580.89, -187500.02, -187500.02, 0.00, 0.00, 0.00, 0, -1
136, -187500.02, -187500.02, -41637.61, -31397.70, 5827.08, 6362.45, -187500.02, -187500.02, 0.00, 0.00, 0.00, 0, -1
137, -187500.02, -187500.02, -44070.24, -33937.41, 3264.79, 15423.51, -187500.02, -187500.02, 0.00, 0.00, 0.00, 0, -1
138, -187500.02, -187500.02, -45492.86, -32666.74, 4362.26, 12770.24, -187500.02, -187500.02, 0.00, 0.00, 0.00, 0, -1
139, -187500.02, -187500.02, -43759.35, -29550.19, 7419.35, 2512.02, -187500.02, -187500.02, 0.00, 0.00, 0.00, 0, -1
140, -187500.02, -187500.02, -41527.55, -30685.57, 6518.39, 4326.72, -187500.02, -187500.02, 0.00, 0.00, 0.00, 0, -1
141, -187500.02, -187500.02, -43564.84, -33765.75, 3465.73, 14489.05, -187500.02, -187500.02, 0.00, 0.00, 0.00, 0, -1
142, -187500.02, -187500.02, -45473.84, -33147.34, 3901.01, 14109.18, -187500.02, -187500.02, 0.00, 0.00, 0.00, 0, -1
143, -187500.02, -187500.02, -44258.87, -29935.29, 7012.88, 3941.69, -187500.02, -187500.02, -0.07, 0.85, 0.48, 0, -1
144, -187500.02, -187500.02, -41630.95, -30162.49, 7001.37, 2876.04, -187500.02, -187500.02, 0.00, 0.00, 0.00, 0, -1
145, -187500.02, -187500.02, -43094.39, -33482.71, 3769.02, 13329.06, -187500.02, -187500.02, 0.00, 0.00, 0.00, 0, -1
146, -187500.02, -187500.02, -45354.95, -33564.18, 3527.71, 15207.54, -187500.02, -187500.02, 0.00, 0.00, 0.00, 0, -1
147, -187500.02, -187500.02, -44738.07, -30459.66, 6488.24, 5755.22, -187500.02, -187500.02, 0.00, 0.00, 0.00, 0, -1
148, -187500.02, -187500.02, -41917.79, -29731.75, 7381.28, 1728.95, -187500.02, -187500.02, 0.00, 0.00, 0.00, 0, -1
149, -187500.02, -187500.02, -42619.12, -33059.32, 4189.30, 11758.00, -187500.02, -187500.02, 0.00, 0.00, 0.00, 0, -1
150, -187500.02, -187500.02, -45132.57, -33807.37, 3295.52, 15813.84, -187500.02, -187500.02, 0.00, 0.00, 0.00, 0, -1
151, -187500.02, -187500.02, -45053.38, -30962.91, 5969.46, 7596.42, -187500.02, -187500.02, 0.00, 0.00, 0.00, 0, -1
152, -187500.02, -187500.02, -42252.21, -29363.51, 7693.63, 1064.57, -187500.02, -187500.02, -0.07, 0.86, 0.48, 0, -1
153, -187500.02, -187500.02, -42128.54, -32491.77, 4762.80, 9907.50, -187500.02, -187500.02, 0.00, 0.00, 0.00, 0, -1
154, -187500.02, -187500.02, -44805.43, -33968.91, 3171.89, 16097.82, -187500.02, -187500.02, 0.00, 0.00, 0.00, 0, -1
155, -187500.02, -187500.02, -45334.07, -31606.39, 5346.47, 9627.30, -187500.02, -187500.02, 0.00, 0.00, 0.00, 0, -1
156, -187500.02, -187500.02, -42757.46, -29243.95, 7756.23, 1061.44, -187500.02, -187500.02, 0.00, 0.00, 0.00, 0, -1
157, -187500.02, -187500.02, -41788.51, -31905.42, 5320.79, 8076.53, -187500.02, -187500.02, 0.00, 0.00, 0.00, 0, -1
158, -187500.02, -187500.02, -44461.84, -34024.14, 3137.58, 15982.99, -187500.02, -187500.02, 0.00, 0.00, 0.00, 0, -1
159, -187500.02, -187500.02, -45498.76, -32222.07, 4756.03, 11511.21, -187500.02, -187500.02, 0.00, 0.00, 0.00, 0, -1
160, -187500.02, -187500.02, -43304.87, -29301.39, 7661.04, 1566.48, -187500.02, -187500.02, 0.00, 0.00, 0.00, 0, -1
161, -187500.02, -187500.02, -41560.16, -31271.92, 5935.73, 6062.49, -187500.02, -187500.02, 0.00, 0.00, 0.00, 0, -1
162, -187500.02, -187500.02, -44017.31, -33951.56, 3241.85, 15431.82, -187500.02, -187500.02, -0.07, 0.86, 0.48, 0, -1
163, -187500.02, -187500.02, -45520.45, -32753.22, 4271.62, 13084.00, -187500.02, -187500.02, 0.00, 0.00, 0.00, 0, -1
164, -187500.02, -187500.02, -43846.14, -29561.84, 7396.80, 2612.85, -187500.02, -187500.02, 0.00, 0.00, 0.00, 0, -1
165, -187500.02, -187500.02, -41509.73, -30643.10, 6546.47, 4166.48, -187500.02, -187500.02, 0.00, 0.00, 0.00, 0, -1
166, -187500.02, -187500.02, -43536.68, -33767.38, 3456.07, 14496.63, -187500.02, -187500.02, 0.00, 0.00, 0.00, 0, -1
167, -187500.02, -187500.02, -45482.98, -33232.50, 3817.52, 14398.86, -187500.02, -187500.02, 0.00, 0.00, 0.00, 0, -1
168, -187500.02, -187500.02, -44371.72, -29977.22, 6958.46, 4141.55, -187500.02, -187500.02, 0.00, 0.00, 0.00, 0, -1
169, -187500.02, -187500.02, -41632.49, -30071.97, 7070.50, 2616.45, -187500.02, -187500.02, 0.00, 0.00, 0.00, 0, -1
170, -187500.02, -187500.02, -43027.04, -33446.66, 3788.11, 13220.25, -187500.02, -187500.02, 0.00, 0.00, 0.00, 0, -1
171, -187500.02, -187500.02, -45309.60, -33573.37, 3496.35, 15364.10, -187500.02, -187500.02, 0.00, 0.00, 0.00, 0, -1
172, -187500.02, -187500.02, -44793.72, -30489.37, 6429.28, 5944.69, -187500.02, -187500.02, -0.07, 0.86, 0.48, 0, -1
173, -187500.02, -187500.02, -41889.56, -29602.89, 7485.20, 1479.64, -187500.02, -187500.02, 0.00, 0.00, 0.00, 0, -1
174, -187500.02, -187500.02, -42510.78, -33014.96, 4238.29, 11626.95, -187500.02, -187500.02, 0.00, 0.00, 0.00, 0, -1
175, -187500.02, -187500.02, -45111.00, -33875.83, 3238.70, 15987.78, -187500.02, -187500.02, 0.00, 0.00, 0.00, 0, -1
176, -187500.02, -187500.02, -45149.54, -31054.02, 5885.50, 7854.76, -187500.02, -187500.02, 0.00, 0.00, 0.00, 0, -1
177, -187500.02, -187500.02, -42280.80, -29275.69, 7769.91, 802.16, -187500.02, -187500.02, 0.00, 0.00, 0.00, 0, -1
178, -187500.02, -187500.02, -42056.71, -32499.28, 4746.06, 9814.54, -187500.02, -187500.02, 0.00, 0.00, 0.00, 0, -1
179, -187500.02, -187500.02, -44854.05, -34088.40, 3042.92, 16354.99, -187500.02, -187500.02, 0.00, 0.00, 0.00, 0, -1
180, -187500.02, -187500.02, -45435.35, -31665.36, 5278.39, 9807.03, -187500.02, -187500.02, 0.00, 0.00, 0.00, 0, -1
181, -187500.02, -187500.02, -42777.91, -29151.79, 7844.99, 735.95, -187500.02, -187500.02, 0.00, 0.00, 0.00, 0, -1
182, -187500.02, -187500.02, -41693.24, -31899.76, 5337.93, 7847.94, -187500.02, -187500.02, -0.07, 0.85, 0.48, 0, -1
183, -187500.02, -187500.02, -44479.21, -34144.37, 3016.23, 16255.53, -187500.02, -187500.02, 0.00, 0.00, 0.00, 0, -1
184, -187500.02, -187500.02, -45584.37, -32261.79, 4700.93, 11692.26, -187500.02, -187500.02, 0.00, 0.00, 0.00, 0, -1
185, -187500.02, -187500.02, -43318.24, -29172.11, 7767.32, 1209.63, -187500.02, -187500.02, 0.00, 0.00, 0.00, 0, -1
186, -187500.02, -187500.02, -41445.03, -31203.59, 5997.44, 5692.05, -187500.02, -187500.02, 0.00, 0.00, 0.00, 0, -1
187, -187500.02, -187500.02, -44035.50, -34102.66, 3090.89, 15695.42, -187500.02, -187500.02, 0.00, 0.00, 0.00, 0, -1
188, -187500.02, -187500.02, -45646.33, -32806.59, 4195.38, 13251.41, -187500.02, -187500.02, 0.00, 0.00, 0.00, 0, -1
189, -187500.02, -187500.02, -43855.15, -29424.17, 7502.92, 2261.97, -187500.02, -187500.02, 0.00, 0.00, 0.00, 0, -1
190, -187500.02, -187500.02, -41388.48, -30531.81, 6643.01, 3701.25, -187500.02, -187500.02, 0.00, 0.00, 0.00, 0, -1
191, -187500.02, -187500.02, -43507.89, -33933.10, 3291.94, 14801.24, -187500.02, -187500.02, -0.07, 0.86, 0.48, 0, -1
192, -187500.02, -187500.02, -45633.75, -33341.07, 3690.47, 14768.69, -187500.02, -187500.02, 0.00, 0.00, 0.00, 0, -1
193, -187500.02, -187500.02, -44394.36, -29817.94, 7087.45, 3817.54, -187500.02, -187500.02, 0.00, 0.00, 0.00, 0, -1
194, -187500.02, -187500.02, -41464.59, -29946.87, 7186.11, 2184.95, -187500.02, -187500.02, 0.00, 0.00, 0.00, 0, -1
195, -187500.02, -187500.02, -42996.35, -33642.46, 3606.45, 13650.54, -187500.02, -187500.02, 0.00, 0.00, 0.00, 0, -1
196, -187500.02, -187500.02, -45513.71, -33774.78, 3297.26, 15923.58, -187500.02, -187500.02, 0.00, 0.00, 0.00, 0, -1
197, -187500.02, -187500.02, -44898.04, -30380.85, 6527.27, 5771.85, -187500.02, -187500.02, 0.00, 0.00, 0.00, 0, -1
198, -187500.02, -187500.02, -41767.18, -29464.27, 7617.12, 952.09, -187500.02, -187500.02, 0.00, 0.00, 0.00, 0, -1
199, -187500.02, -187500.02, -42481.72, -33203.67, 4045.69, 11981.12, -187500.02, -187500.02, 0.00, 0.00, 0.00, 0, -1
200, -187500.02, -187500.02, -45300.08, -34068.80, 3027.59, 16535.98, -187500.02, -187500.02, 0.00, 0.00, 0.00, 0, -1
201, -187500.02, -187500.02, -45269.90, -31002.36, 5914.41, 7814.42, -187500.02, -187500.02, -0.07, 0.86, 0.48, 0, -1
202, -187500.02, -187500.02, -42206.66, -29111.80, 7923.49, 249.09, -187500.02, -187500.02, 0.00, 0.00, 0.00, 0, -1
203, -187500.02, -187500.02, -41934.26, -32533.97, 4719.21, 9806.31, -187500.02, -187500.02, 0.00, 0.00, 0.00, 0, -1
204, -187500.02, -187500.02, -44958.16, -34241.08, 2892.07, 16718.99, -187500.02, -187500.02, 0.00, 0.00, 0.00, 0, -1
205, -187500.02, -187500.02, -45538.82, -31640.84, 5286.30, 9764.74, -187500.02, -187500.02, 0.00, 0.00, 0.00, 0, -1
206, -187500.02, -187500.02, -42728.73, -28975.28, 8000.23, 234.22, -187500.02, -187500.02, 0.00, 0.00, 0.00, 0, -1
207, -187500.02, -187500.02, -41546.55, -31821.02, 5411.78, 7527.04, -187500.02, -187500.02, 0.00, 0.00, 0.00, 0, -1
208, -187500.02, -187500.02, -44514.32, -34276.64, 2889.99, 16525.78, -187500.02, -187500.02, 0.00, 0.00, 0.00, 0, -1
209, -187500.02, -187500.02, -45705.36, -32306.88, 4650.41, 11826.11, -187500.02, -187500.02, 0.00, 0.00, 0.00, 0, -1
210, -187500.02, -187500.02, -43330.11, -29068.80, 7867.17, 931.31, -187500.02, -187500.02, 0.00, 0.00, 0.00, 0, -1
211, -187500.02, -187500.02, -41349.36, -31142.80, 6054.39, 5449.35, -187500.02, -187500.02, -0.07, 0.85, 0.48, 0, -1
212, -187500.02, -187500.02, -44034.43, -34173.36, 2999.20, 15926.15, -187500.02, -187500.02, 0.00, 0.00, 0.00, 0, -1
213, -187500.02, -187500.02, -45737.84, -32874.05, 4093.32, 13526.63, -187500.02, -187500.02, 0.00, 0.00, 0.00, 0, -1
214, -187500.02, -187500.02, -43911.39, -29356.87, 7538.53, 2159.04, -187500.02, -187500.02, 0.00, 0.00, 0.00, 0, -1
215, -187500.02, -187500.02, -41310.29, -30424.08, 6731.03, 3379.29, -187500.02, -187500.02, 0.00, 0.00, 0.00, 0, -1
216, -187500.02, -187500.02, -43472.27, -33959.16, 3248.80, 14835.17, -187500.02, -187500.02, 0.00, 0.00, 0.00, 0, -1
217, -187500.02, -187500.02, -45683.59, -33375.38, 3637.14, 14889.88, -187500.02, -187500.02, 0.00, 0.00, 0.00, 0, -1
218, -187500.02, -187500.02, -44442.06, -29810.25, 7077.32, 3791.91, -187500.02, -187500.02, 0.00, 0.00, 0.00, 0, -1
219, -187500.02, -187500.02, -41476.81, -29835.60, 7267.20, 1755.80, -187500.02, -187500.02, 0.00, 0.00, 0.00, 0, -1
220, -187500.02, -187500.02, -42906.90, -33585.64, 3628.58, 13368.00, -187500.02, -187500.02, 0.00, 0.00, 0.00, 0, -1
221, -187500.02, -187500.02, -45512.15, -33799.05, 3240.69, 15982.46, -187500.02, -187500.02, -0.07, 0.86, 0.48, 0, -1
222, -187500.02, -187500.02, -44918.38, -30387.24, 6495.95, 5823.32, -187500.02, -187500.02, 0.00, 0.00, 0.00, 0, -1
223, -187500.02, -187500.02, -41763.45, -29345.96, 7709.83, 659.98, -187500.02, -187500.02, 0.00, 0.00, 0.00, 0, -1
224, -187500.02, -187500.02, -42360.58, -33105.23, 4127.88, 11625.52, -187500.02, -187500.02, 0.00, 0.00, 0.00, 0, -1
225, -187500.02, -187500.02, -45263.09, -34103.46, 2976.13, 16606.03, -187500.02, -187500.02, 0.00, 0.00, 0.00, 0, -1
226, -187500.02, -187500.02, -45315.50, -31079.52, 5814.20, 7999.96, -187500.02, -187500.02, 0.00, 0.00, 0.00, 0, -1
227, -187500.02, -187500.02, -42266.07, -29083.89, 7914.62, 126.53, -187500.02, -187500.02, 0.00, 0.00, 0.00, 0, -1
228, -187500.02, -187500.02, -41888.40, -32490.05, 4735.62, 9512.54, -187500.02, -187500.02, 0.00, 0.00, 0.00, 0, -1
229, -187500.02, -187500.02, -44914.67, -34264.30, 2846.03, 16760.19, -187500.02, -187500.02, 0.00, 0.00, 0.00, 0, -1
230, -187500.02, -187500.02, -45561.06, -31721.08, 5189.31, 10044.07, -187500.02, -187500.02, -0.07, 0.86, 0.48, 0, -1
231, -187500.02, -187500.02, -42779.25, -28944.32, 8006.86, 199.33, -187500.02, -187500.02, 0.00, 0.00, 0.00, 0, -1
232, -187500.02, -187500.02, -41479.67, -31736.03, 5478.01, 7224.87, -187500.02, -187500.02, 0.00, 0.00, 0.00, 0, -1
233, -187500.02, -187500.02, -44455.74, -34279.28, 2872.47, 16481.97, -187500.02, -187500.02, 0.00, 0.00, 0.00, 0, -1
234, -187500.02, -187500.02, -45703.97, -32365.37, 4583.36, 11968.71, -187500.02, -187500.02, 0.00, 0.00, 0.00, 0, -1
235, -187500.02, -187500.02, -43403.73, -29115.36, 7806.64, 982.67, -187500.02, -187500.02, 0.00, 0.00, 0.00, 0, -1
236, -187500.02, -187500.02, -41330.54, -31036.78, 6156.68, 4983.84, -187500.02, -187500.02, 0.00, 0.00, 0.00, 0, -1
237, -187500.02, -187500.02, -43964.79, -34228.57, 2969.85, 15755.12, -187500.02, -187500.02, 0.00, 0.00, 0.00, 0, -1
238, -187500.02, -187500.02, -45757.13, -32985.90, 4009.52, 13664.05, -187500.02, -187500.02, 0.00, 0.00, 0.00, 0, -1
239, -187500.02, -187500.02, -43991.03, -29465.77, 7453.35, 2291.01, -187500.02, -187500.02, 0.00, 0.00, 0.00, 0, -1
240, -187500.02, -187500.02, -41330.61, -30386.39, 6785.54, 3076.14, -187500.02, -187500.02, -0.08, 0.85, 0.48, 0, -1
241, -187500.02, -187500.02, -43409.99, -33988.29, 3250.41, 14639.63, -187500.02, -187500.02, 0.00, 0.00, 0.00, 0, -1
242, -187500.02, -187500.02, -45690.96, -33536.29, 3508.91, 15108.13, -187500.02, -187500.02, 0.00, 0.00, 0.00, 0, -1
243, -187500.02, -187500.02, -44580.15, -29986.45, 6928.12, 4094.26, -187500.02, -187500.02, 0.00, 0.00, 0.00, 0, -1
244, -187500.02, -187500.02, -41531.62, -29811.64, 7317.36, 1500.90, -187500.02, -187500.02, 0.00, 0.00, 0.00, 0, -1
245, -187500.02, -187500.02, -42845.48, -33607.90, 3648.56, 13104.07, -187500.02, -187500.02, 0.00, 0.00, 0.00, 0, -1
246, -187500.02, -187500.02, -45536.67, -33950.69, 3129.80, 16048.62, -187500.02, -187500.02, 0.00, 0.00, 0.00, 0, -1
247, -187500.02, -187500.02, -45018.78, -30558.68, 6352.05, 6053.99, -187500.02, -187500.02, 0.00, 0.00, 0.00, 0, -1
248, -187500.02, -187500.02, -41862.34, -29342.95, 7725.90, 404.59, -187500.02, -187500.02, 0.00, 0.00, 0.00, 0, -1
249, -187500.02, -187500.02, -42280.13, -33057.00, 4201.05, 11141.63, -187500.02, -187500.02, 0.00, 0.00, 0.00, 0, -1
250, -187500.02, -187500.02, -45228.35, -34199.69, 2907.18, 16602.05, -187500.02, -187500.02, -0.08, 0.86, 0.48, 0, -1
251, -187500.02, -187500.02, -45385.71, -31221.03, 5695.43, 8218.38, -187500.02, -187500.02, 0.00, 0.00, 0.00, 0, -1
252, -187500.02, -187500.02, -42337.60, -29061.69, 7951.43, -12.56, -187500.02, -187500.02, 0.00, 0.00, 0.00, 0, -1
253, -187500.02, -187500.02, -41820.45, -32417.81, 4829.23, 9046.44, -187500.02, -187500.02, 0.00, 0.00, 0.00, 0, -1
254, -187500.02, -187500.02, -44860.71, -34327.45, 2809.26, 16711.95, -187500.02, -187500.02, 0.00, 0.00, 0.00, 0, -1
255, -187500.02, -187500.02, -45612.49, -31871.31, 5061.87, 10319.06, -187500.02, -187500.02, 0.00, 0.00, 0.00, 0, -1
0, -187500.02, -187500.02, -42917.98, -29028.81, 7940.32, 241.02, -187500.02, -187500.02, 0.00, 0.00, 0.00, 0, -1
1, -187500.02, -187500.02, -41494.76, -31702.80, 5532.55, 6793.01, -187500.02, -187500.02, 0.00, 0.00, 0.00, 0, -1
2, -187500.02, -187500.02, -44404.87, -34347.21, 2831.85, 16386.42, -187500.02, -187500.02, 0.00, 0.00, 0.00, 0, -1
3, -187500.02, -187500.02, -45767.74, -32565.46, 4403.38, 12335.77, -187500.02, -187500.02, 0.00, 0.00, 0.00, 0, -1
4, -187500.02, -187500.02, -43557.71, -29215.05, 7705.50, 1156.99, -187500.02, -187500.02, -0.08, 0.85, 0.48, 0, -1
5, -187500.02, -187500.02, -41319.41, -30963.40, 6222.93, 4702.74, -187500.02, -187500.02, 0.00, 0.00, 0.00, 0, -1
6, -187500.02, -187500.02, -43904.77, -34212.63, 2981.81, 15628.36, -187500.02, -187500.02, 0.00, 0.00, 0.00, 0, -1
7, -187500.02, -187500.02, -45770.36, -33117.48, 3878.01, 13993.04, -187500.02, -187500.02, 0.00, 0.00, 0.00, 0, -1
8, -187500.02, -187500.02, -44116.02, -29528.31, 7378.69, 2563.10, -187500.02, -187500.02, 0.00, 0.00, 0.00, 0, -1
9, -187500.02, -187500.02, -41355.46, -30280.47, 6879.89, 2739.61, -187500.02, -187500.02, 0.00, 0.00, 0.00, 0, -1
10, -187500.02, -187500.02, -43303.13, -33904.49, 3328.38, 14371.50, -187500.02, -187500.02, 0.00, 0.00, 0.00, 0, -1
11, -187500.02, -187500.02, -45640.94, -33585.84, 3453.05, 15277.66, -187500.02, -187500.02, 0.00, 0.00, 0.00, 0, -1
12, -187500.02, -187500.02, -44654.63, -30053.39, 6839.70, 4386.08, -187500.02, -187500.02, 0.00, 0.00, 0.00, 0, -1
13, -187500.02, -187500.02, -41554.11, -29693.53, 7399.72, 1236.43, -187500.02, -187500.02, -0.07, 0.86, 0.48, 0, -1
14, -187500.02, -187500.02, -42755.51, -33517.33, 3707.17, 12800.87, -187500.02, -187500.02, 0.00, 0.00, 0.00, 0, -1
15, -187500.02, -187500.02, -45475.54, -33973.22, 3082.84, 16169.09, -187500.02, -187500.02, 0.00, 0.00, 0.00, 0, -1
16, -187500.02, -187500.02, -45109.60, -30674.01, 6212.49, 6455.94, -187500.02, -187500.02, 0.00, 0.00, 0.00, 0, -1
17, -187500.02, -187500.02, -41954.16, -29279.06, 7753.73, 279.49, -187500.02, -187500.02, 0.00, 0.00, 0.00, 0, -1
18, -187500.02, -187500.02, -42217.64, -32952.75, 4269.90, 10810.78, -187500.02, -187500.02, 0.00, 0.00, 0.00, 0, -1
19, -187500.02, -187500.02, -45185.48, -34230.15, 2849.60, 16620.78, -187500.02, -187500.02, 0.00, 0.00, 0.00, 0, -1
20, -187500.02, -187500.02, -45457.43, -31360.21, 5527.88, 8603.43, -187500.02, -187500.02, 0.00, 0.00, 0.00, 0, -1
21, -187500.02, -187500.02, -42454.03, -29048.59, 7929.77, -8.58, -187500.02, -187500.02, 0.00, 0.00, 0.00, 0, -1
22, -187500.02, -187500.02, -41762.76, -32294.00, 4935.67, 8623.86, -187500.02, -187500.02, 0.00, 0.00, 0.00, 0, -1
23, -187500.02, -187500.02, -44792.40, -34349.54, 2785.07, 16640.47, -187500.02, -187500.02, -0.08, 0.86, 0.48, 0, -1
24, -187500.02, -187500.02, -45648.39, -32013.87, 4911.04, 10715.18, -187500.02, -187500.02, 0.00, 0.00, 0.00, 0, -1
25, -187500.02, -187500.02, -43053.06, -29058.23, 7882.41, 363.13, -187500.02, -187500.02, 0.00, 0.00, 0.00, 0, -1
26, -187500.02, -187500.02, -41478.33, -31595.06, 5613.33, 6430.13, -187500.02, -187500.02, 0.00, 0.00, 0.00, 0, -1
27, -187500.02, -187500.02, -44361.15, -34354.21, 2806.95, 16237.16, -187500.02, -187500.02, 0.00, 0.00, 0.00, 0, -1
28, -187500.02, -187500.02, -45800.78, -32674.81, 4281.77, 12548.18, -187500.02, -187500.02, 0.00, 0.00, 0.00, 0, -1
29, -187500.02, -187500.02, -43661.49, -29266.95, 7646.00, 1317.46, -187500.02, -187500.02, 0.00, 0.00, 0.00, 0, -1
30, -187500.02, -187500.02, -41347.24, -30828.08, 6351.61, 4164.15, -187500.02, -187500.02, 0.00, 0.00, 0.00, 0, -1
31, -187500.02, -187500.02, -43783.42, -34172.06, 3027.19, 15317.87, -187500.02, -187500.02, 0.00, 0.00, 0.00, 0, -1
32, -187500.02, -187500.02, -45752.81, -33169.56, 3823.42, 14114.75, -187500.02, -187500.02, 0.00, 0.00, 0.00, 0, -1
33, -187500.02, -187500.02, -44186.47, -29603.77, 7287.74, 2788.56, -187500.02, -187500.02, -0.08, 0.84, 0.48, 0, -1
34, -187500.02, -187500.02, -41385.97, -30161.29, 6966.32, 2450.51, -187500.02, -187500.02, 0.00, 0.00, 0.00, 0, -1
35, -187500.02, -187500.02, -43225.99, -33852.03, 3354.97, 14113.09, -187500.02, -187500.02, 0.00, 0.00, 0.00, 0, -1
36, -187500.02, -187500.02, -45650.44, -33689.35, 3333.11, 15477.20, -187500.02, -187500.02, 0.00, 0.00, 0.00, 0, -1
37, -187500.02, -187500.02, -44772.64, -30176.13, 6701.25, 4772.86, -187500.02, -187500.02, 0.00, 0.00, 0.00, 0, -1
38, -187500.02, -187500.02, -41633.54, -29596.75, 7475.14, 1028.00, -187500.02, -187500.02, 0.00, 0.00, 0.00, 0, -1
39, -187500.02, -187500.02, -42653.88, -33406.45, 3814.50, 12431.62, -187500.02, -187500.02, 0.00, 0.00, 0.00, 0, -1
40, -187500.02, -187500.02, -45440.18, -34028.16, 3033.33, 16243.82, -187500.02, -187500.02, 0.00, 0.00, 0.00, 0, -1
41, -187500.02, -187500.02, -45161.95, -30775.38, 6110.97, 6769.43, -187500.02, -187500.02, 0.00, 0.00, 0.00, 0, -1
42, -187500.02, -187500.02, -42054.92, -29241.91, 7782.79, 162.14, -187500.02, -187500.02, 0.00, 0.00, 0.00, 0, -1
43, -187500.02, -187500.02, -42107.54, -32809.39, 4417.69, 10337.41, -187500.02, -187500.02, -0.07, 0.85, 0.48, 0, -1
44, -187500.02, -187500.02, -45099.20, -34258.11, 2843.83, 16664.88, -187500.02, -187500.02, 0.00, 0.00, 0.00, 0, -1
45, -187500.02, -187500.02, -45476.99, -31458.00, 5448.93, 8966.94, -187500.02, -187500.02, 0.00, 0.00, 0.00, 0, -1
46, -187500.02, -187500.02, -42556.74, -29045.89, 7932.32, 13.55, -187500.02, -187500.02, 0.00, 0.00, 0.00, 0, -1
47, -187500.02, -187500.02, -41693.76, -32147.78, 5071.34, 8173.21, -187500.02, -187500.02, 0.00, 0.00, 0.00, 0, -1
48, -187500.02, -187500.02, -44695.35, -34347.48, 2783.55, 16590.22, -187500.02, -187500.02, 0.00, 0.00, 0.00, 0, -1
49, -187500.02, -187500.02, -45712.91, -32188.28, 4746.68, 11122.14, -187500.02, -187500.02, 0.00, 0.00, 0.00, 0, -1
50, -187500.02, -187500.02, -43189.67, -29101.66, 7828.97, 566.64, -187500.02, -187500.02, 0.00, 0.00, 0.00, 0, -1
51, -187500.02, -187500.02, -41446.41, -31434.22, 5754.23, 6010.14, -187500.02, -187500.02, 0.00, 0.00, 0.00, 0, -1
52, -187500.02, -187500.02, -44236.05, -34305.37, 2848.15, 16110.42, -187500.02, -187500.02, -0.07, 0.86, 0.48, 0, -1
53, -187500.02, -187500.02, -45792.66, -32772.28, 4180.60, 12920.56, -187500.02, -187500.02, 0.00, 0.00, 0.00, 0, -1
54, -187500.02, -187500.02, -43754.32, -29285.63, 7607.97, 1559.95, -187500.02, -187500.02, 0.00, 0.00, 0.00, 0, -1
55, -187500.02, -187500.02, -41317.96, -30693.73, 6453.46, 3891.15, -187500.02, -187500.02, 0.00, 0.00, 0.00, 0, -1
56, -187500.02, -187500.02, -43683.04, -34117.70, 3058.88, 15193.75, -187500.02, -187500.02, 0.00, 0.00, 0.00, 0, -1
57, -187500.02, -187500.02, -45751.47, -33267.96, 3717.56, 14372.71, -187500.02, -187500.02, 0.00, 0.00, 0.00, 0, -1
58, -187500.02, -187500.02, -44309.23, -29705.45, 7179.58, 3047.17, -187500.02, -187500.02, 0.00, 0.00, 0.00, 0, -1
59, -187500.02, -187500.02, -41441.83, -30067.05, 7049.18, 2075.61, -187500.02, -187500.02, 0.00, 0.00, 0.00, 0, -1
60, -187500.02, -187500.02, -43124.31, -33810.05, 3400.57, 13833.56, -187500.02, -187500.02, 0.00, 0.00, 0.00, 0, -1
61, -187500.02, -187500.02, -45651.43, -33772.86, 3257.03, 15647.74, -187500.02, -187500.02, 0.00, 0.00, 0.00, 0, -1
62, -187500.02, -187500.02, -44852.91, -30269.85, 6603.67, 5021.74, -187500.02, -187500.02, -0.07, 0.86, 0.48, 0, -1
63, -187500.02, -187500.02, -41674.98, -29520.64, 7534.10, 817.47, -187500.02, -187500.02, 0.00, 0.00, 0.00, 0, -1
64, -187500.02, -187500.02, -42556.74, -33343.13, 3877.07, 12191.09, -187500.02, -187500.02, 0.00, 0.00, 0.00, 0, -1
65, -187500.02, -187500.02, -45398.92, -34089.80, 2973.34, 16425.60, -187500.02, -187500.02, 0.00, 0.00, 0.00, 0, -1
66, -187500.02, -187500.02, -45269.97, -30922.86, 5960.52, 7210.96, -187500.02, -187500.02, 0.00, 0.00, 0.00, 0, -1
67, -187500.02, -187500.02, -42142.67, -29194.48, 7811.49, 85.72, -187500.02, -187500.02, 0.00, 0.00, 0.00, 0, -1
68, -187500.02, -187500.02, -42076.55, -32777.07, 4440.20, 10177.96, -187500.02, -187500.02, 0.00, 0.00, 0.00, 0, -1
69, -187500.02, -187500.02, -45097.37, -34298.71, 2790.08, 16740.99, -187500.02, -187500.02, 0.00, 0.00, 0.00, 0, -1
70, -187500.02, -187500.02, -45557.19, -31565.29, 5325.73, 9304.45, -187500.02, -187500.02, 0.00, 0.00, 0.00, 0, -1
71, -187500.02, -187500.02, -42651.46, -29003.09, 7947.92, -63.64, -187500.02, -187500.02, 0.00, 0.00, 0.00, 0, -1
72, -187500.02, -187500.02, -41618.97, -32043.71, 5154.22, 7896.38, -187500.02, -187500.02, -0.07, 0.86, 0.48, 0, -1
73, -187500.02, -187500.02, -44654.92, -34351.48, 2761.65, 16609.92, -187500.02, -187500.02, 0.00, 0.00, 0.00, 0, -1
74, -187500.02, -187500.02, -45708.18, -32186.42, 4729.20, 11241.21, -187500.02, -187500.02, 0.00, 0.00, 0.00, 0, -1
75, -187500.02, -187500.02, -43213.41, -29051.12, 7864.64, 470.19, -187500.02, -187500.02, 0.00, 0.00, 0.00, 0, -1
76, -187500.02, -187500.02, -41358.59, -31298.39, 5880.03, 5600.01, -187500.02, -187500.02, 0.00, 0.00, 0.00, 0, -1
77, -187500.02, -187500.02, -44159.71, -34314.42, 2832.70, 16071.87, -187500.02, -187500.02, 0.00, 0.00, 0.00, 0, -1
78, -187500.02, -187500.02, -45811.89, -32847.95, 4094.24, 13144.12, -187500.02, -187500.02, 0.00, 0.00, 0.00, 0, -1
79, -187500.02, -187500.02, -43845.76, -29330.43, 7545.12, 1659.24, -187500.02, -187500.02, 0.00, 0.00, 0.00, 0, -1
80, -187500.02, -187500.02, -41313.53, -30628.97, 6497.47, 3623.08, -187500.02, -187500.02, 0.00, 0.00, 0.00, 0, -1
81, -187500.02, -187500.02, -43631.57, -34103.35, 3052.44, 15127.28, -187500.02, -187500.02, -0.08, 0.85, 0.48, 0, -1
82, -187500.02, -187500.02, -45745.59, -33352.18, 3614.25, 14651.23, -187500.02, -187500.02, 0.00, 0.00, 0.00, 0, -1
83, -187500.02, -187500.02, -44411.02, -29751.31, 7102.89, 3277.95, -187500.02, -187500.02, 0.00, 0.00, 0.00, 0, -1
84, -187500.02, -187500.02, -41421.74, -29950.31, 7133.74, 1786.33, -187500.02, -187500.02, 0.00, 0.00, 0.00, 0, -1
85, -187500.02, -187500.02, -43041.08, -33767.90, 3423.93, 13655.95, -187500.02, -187500.02, 0.00, 0.00, 0.00, 0, -1
86, -187500.02, -187500.02, -45631.00, -33813.02, 3206.31, 15742.18, -187500.02, -187500.02, 0.00, 0.00, 0.00, 0, -1
87, -187500.02, -187500.02, -44915.20, -30336.44, 6537.84, 5189.09, -187500.02, -187500.02, 0.00, 0.00, 0.00, 0, -1
88, -187500.02, -187500.02, -41747.67, -29482.33, 7570.78, 542.32, -187500.02, -187500.02, 0.00, 0.00, 0.00, 0, -1
89, -187500.02, -187500.02, -42507.00, -33308.43, 3907.13, 11885.79, -187500.02, -187500.02, 0.00, 0.00, 0.00, 0, -1
90, -187500.02, -187500.02, -45409.78, -34171.34, 2889.81, 16492.90, -187500.02, -187500.02, 0.00, 0.00, 0.00, 0, -1
91, -187500.02, -187500.02, -45355.62, -31022.86, 5858.95, 7394.49, -187500.02, -187500.02, -0.08, 0.85, 0.48, 0, -1
92, -187500.02, -187500.02, -42198.48, -29147.21, 7855.21, -131.74, -187500.02, -187500.02, 0.00, 0.00, 0.00, 0, -1
93, -187500.02, -187500.02, -41985.74, -32697.45, 4520.66, 9830.50, -187500.02, -187500.02, 0.00, 0.00, 0.00, 0, -1
94, -187500.02, -187500.02, -45070.44, -34352.95, 2737.28, 16766.15, -187500.02, -187500.02, 0.00, 0.00, 0.00, 0, -1
95, -187500.02, -187500.02, -45607.37, -31663.68, 5223.31, 9527.56, -187500.02, -187500.02, 0.00, 0.00, 0.00, 0, -1
96, -187500.02, -187500.02, -42732.04, -28999.20, 7936.52, -144.37, -187500.02, -187500.02, 0.00, 0.00, 0.00, 0, -1
97, -187500.02, -187500.02, -41583.50, -31994.38, 5196.69, 7578.34, -187500.02, -187500.02, 0.00, 0.00, 0.00, 0, -1
98, -187500.02, -187500.02, -44643.50, -34414.73, 2713.26, 16591.32, -187500.02, -187500.02, 0.00, 0.00, 0.00, 0, -1
99, -187500.02, -187500.02, -45789.43, -32360.38, 4573.21, 11587.90, -187500.02, -187500.02, 0.00, 0.00, 0.00, 0, -1
100, -187500.02, -187500.02, -43346.80, -29091.71, 7824.61, 515.61, -187500.02, -187500.02, 0.00, 0.00, 0.00, 0, -1
101, -187500.02, -187500.02, -41369.41, -31254.87, 5923.23, 5250.89, -187500.02, -187500.02, -0.08, 0.85, 0.48, 0, -1
102, -187500.02, -187500.02, -44135.39, -34326.94, 2827.94, 15904.12, -187500.02, -187500.02, 0.00, 0.00, 0.00, 0, -1
103, -187500.02, -187500.02, -45823.82, -32959.01, 3998.35, 13344.57, -187500.02, -187500.02, 0.00, 0.00, 0.00, 0, -1
104, -187500.02, -187500.02, -43985.55, -29459.26, 7427.17, 1893.48, -187500.02, -187500.02, 0.00, 0.00, 0.00, 0, -1
105, -187500.02, -187500.02, -41386.80, -30532.57, 6602.88, 3132.06, -187500.02, -187500.02, 0.00, 0.00, 0.00, 0, -1
106, -187500.02, -187500.02, -43544.13, -34053.51, 3129.80, 14601.25, -187500.02, -187500.02, 0.00, 0.00, 0.00, 0, -1
107, -187500.02, -187500.02, -45705.05, -33488.75, 3508.20, 14756.78, -187500.02, -187500.02, 0.00, 0.00, 0.00, 0, -1
108, -187500.02, -187500.02, -44570.43, -30032.50, 6841.76, 3895.48, -187500.02, -187500.02, 0.00, 0.00, 0.00, 0, -1
109, -187500.02, -187500.02, -41605.20, -29913.43, 7160.45, 1616.90, -187500.02, -187500.02, 0.00, 0.00, 0.00, 0, -1
110, -187500.02, -187500.02, -42930.19, -33544.63, 3642.42, 12851.51, -187500.02, -187500.02, 0.00, 0.00, 0.00, 0, -1
111, -187500.02, -187500.02, -45453.30, -33854.09, 3172.61, 15628.54, -187500.02, -187500.02, -0.08, 0.85, 0.48, 0, -1
112, -187500.02, -187500.02, -45015.03, -30694.91, 6183.86, 6196.04, -187500.02, -187500.02, 0.00, 0.00, 0.00, 0, -1
113, -187500.02, -187500.02, -42041.53, -29453.90, 7569.57, 627.17, -187500.02, -187500.02, 0.00, 0.00, 0.00, 0, -1
114, -187500.02, -187500.02, -42307.31, -32712.69, 4475.36, 10229.68, -187500.02, -187500.02, 0.00, 0.00, 0.00, 0, -1
115, -187500.02, -187500.02, -44913.68, -33912.00, 3158.61, 15475.25, -187500.02, -187500.02, 0.00, 0.00, 0.00, 0, -1
116, -187500.02, -187500.02, -45252.49, -31743.03, 5171.03, 9207.47, -187500.02, -187500.02, 0.00, 0.00, 0.00, 0, -1
117, -187500.02, -187500.02, -42993.04, -29693.42, 7263.38, 1735.12, -187500.02, -187500.02, 0.00, 0.00, 0.00, 0, -1
118, -187500.02, -187500.02, -42124.83, -31455.65, 5663.89, 6607.42, -187500.02, -187500.02, 0.00, 0.00, 0.00, 0, -1
119, -187500.02, -187500.02, -43850.01, -32912.20, 4157.13, 12268.04, -187500.02, -187500.02, 0.00, 0.00, 0.00, 0, -1
120, -187500.02, -187500.02, -44573.27, -32216.04, 4751.22, 10318.86, -187500.02, -187500.02, -0.08, 0.85, 0.48, 0, -1
121, -187500.02, -187500.02, -43746.70, -30936.96, 6027.95, 5377.70, -187500.02, -187500.02, 0.00, 0.00, 0.00, 0, -1
122, -187500.02, -187500.02, -42883.25, -31273.91, 5787.34, 6439.38, -187500.02, -187500.02, 0.00, 0.00, 0.00, 0, -1
123, -187500.02, -187500.02, -43459.55, -31860.27, 5183.08, 9305.12, -187500.02, -187500.02, 0.00, 0.00, 0.00, 0, -1
124, -187500.02, -187500.02, -43782.73, -31645.98, 5341.31, 8461.10, -187500.02, -187500.02, 0.00, 0.00, 0.00, 0, -1
125, -187500.02, -187500.02, -43456.42, -31193.29, 5795.90, 5873.59, -187500.02, -187500.02, 0.00, 0.00, 0.00, 0, -1
126, -187500.02, -187500.02, -43125.01, -31576.33, 5481.90, 7094.13, -187500.02, -187500.02, 0.00, 0.00, 0.00, 0, -1
127, -187500.02, -187500.02, -43600.54, -32038.81, 5004.85, 9881.62, -187500.02, -187500.02, 0.00, 0.00, 0.00, 0, -1
128, -187500.02, -187500.02, -43916.91, -31881.16, 5111.42, 9480.09, -187500.02, -187500.02, 0.00, 0.00, 0.00, 0, -1
129, -187500.02, -187500.02, -43687.76, -31385.69, 5601.53, 6732.88, -187500.02, -187500.02, 0.00, 0.00, 0.00, 0, -1
130, -187500.02, -187500.02, -43246.94, -31567.72, 5490.10, 6972.63, -187500.02, -187500.02, -0.08, 0.85, 0.48, 0, -1
131, -187500.02, -187500.02, -43595.55, -32064.94, 4988.82, 9830.41, -187500.02, -187500.02, 0.00, 0.00, 0.00, 0, -1
132, -187500.02, -187500.02, -43929.94, -31969.79, 5030.93, 9996.91, -187500.02, -187500.02, 0.00, 0.00, 0.00, 0, -1
133, -187500.02, -187500.02, -43808.66, -31504.83, 5471.44, 7385.15, -187500.02, -187500.02, 0.00, 0.00, 0.00, 0, -1
134, -187500.02, -187500.02, -43319.49, -31497.09, 5531.54, 6783.13, -187500.02, -187500.02, 0.00, 0.00, 0.00, 0, -1
135, -187500.02, -187500.02, -43520.57, -32035.66, 5017.97, 9565.67, -187500.02, -187500.02, 0.00, 0.00, 0.00, 0, -1
136, -187500.02, -187500.02, -43907.88, -32044.51, 4961.51, 10322.57, -187500.02, -187500.02, 0.00, 0.00, 0.00, 0, -1
137, -187500.02, -187500.02, -43868.36, -31593.50, 5376.44, 7994.64, -187500.02, -187500.02, 0.00, 0.00, 0.00, 0, -1
138, -187500.02, -187500.02, -43386.55, -31438.51, 5578.46, 6645.69, -187500.02, -187500.02, 0.00, 0.00, 0.00, 0, -1
139, -187500.02, -187500.02, -43410.19, -31927.28, 5126.44, 9172.82, -187500.02, -187500.02, 0.00, 0.00, 0.00, 0, -1
140, -187500.02, -187500.02, -43853.99, -32071.44, 4942.89, 10472.24, -187500.02, -187500.02, -0.08, 0.86, 0.49, 0, -1
141, -187500.02, -187500.02, -43909.46, -31691.17, 5275.19, 8558.55, -187500.02, -187500.02, 0.00, 0.00, 0.00, 0, -1
142, -187500.02, -187500.02, -43489.21, -31433.50, 5557.72, 6623.45, -187500.02, -187500.02, 0.00, 0.00, 0.00, 0, -1
143, -187500.02, -187500.02, -43391.55, -31906.11, 5134.96, 8709.11, -187500.02, -187500.02, 0.00, 0.00, 0.00, 0, -1
144, -187500.02, -187500.02, -43822.29, -32104.57, 4896.89, 10506.66, -187500.02, -187500.02, 0.00, 0.00, 0.00, 0, -1
145, -187500.02, -187500.02, -43930.45, -31779.87, 5182.12, 9063.27, -187500.02, -187500.02, 0.00, 0.00, 0.00, 0, -1
146, -187500.02, -187500.02, -43569.72, -31419.20, 5567.42, 6726.09, -187500.02, -187500.02, 0.00, 0.00, 0.00, 0, -1
147, -187500.02, -187500.02, -43315.60, -31775.42, 5278.65, 8192.63, -187500.02, -187500.02, 0.00, 0.00, 0.00, 0, -1
148, -187500.02, -187500.02, -43741.58, -32098.56, 4934.10, 10415.67, -187500.02, -187500.02, 0.00, 0.00, 0.00, 0, -1
149, -187500.02, -187500.02, -43963.45, -31899.04, 5084.93, 9529.96, -187500.02, -187500.02, 0.00, 0.00, 0.00, 0, -1
150, -187500.02, -187500.02, -43708.77, -31502.03, 5473.83, 6970.19, -187500.02, -187500.02, -0.09, 0.86, 0.50, 0, -1
151, -187500.02, -187500.02, -43352.23, -31742.25, 5290.70, 7734.22, -187500.02, -187500.02, 0.00, 0.00, 0.00, 0, -1
152, -187500.02, -187500.02, -43705.35, -32116.77, 4898.43, 10241.19, -187500.02, -187500.02, 0.00, 0.00, 0.00, 0, -1
153, -187500.02, -187500.02, -43946.90, -31953.65, 5013.21, 9918.74, -187500.02, -187500.02, 0.00, 0.00, 0.00, 0, -1
154, -187500.02, -187500.02, -43757.20, -31512.07, 5438.72, 7309.78, -187500.02, -187500.02, 0.00, 0.00, 0.00, 0, -1
155, -187500.02, -187500.02, -43347.27, -31629.82, 5380.78, 7312.44, -187500.02, -187500.02, 0.00, 0.00, 0.00, 0, -1
156, -187500.02, -187500.02, -43640.24, -32102.29, 4920.27, 9964.43, -187500.02, -187500.02, 0.00, 0.00, 0.00, 0, -1
157, -187500.02, -187500.02, -43968.70, -32052.42, 4927.91, 10215.04, -187500.02, -187500.02, 0.00, 0.00, 0.00, 0, -1
158, -187500.02, -187500.02, -43854.43, -31596.02, 5354.58, 7731.65, -187500.02, -187500.02, 0.00, 0.00, 0.00, 0, -1
159, -187500.02, -187500.02, -43404.43, -31564.69, 5440.68, 6977.16, -187500.02, -187500.02, -0.08, 0.85, 0.50, 0, -1
160, -187500.02, -187500.02, -43546.20, -32038.14, 4988.31, 9582.53, -187500.02, -187500.02, 0.00, 0.00, 0.00, 0, -1
161, -187500.02, -187500.02, -43916.28, -32079.87, 4903.50, 10407.40, -187500.02, -187500.02, 0.00, 0.00, 0.00, 0, -1
162, -187500.02, -187500.02, -43905.39, -31671.79, 5269.47, 8225.62, -187500.02, -187500.02, 0.00, 0.00, 0.00, 0, -1
163, -187500.02, -187500.02, -43467.95, -31507.17, 5476.15, 6773.96, -187500.02, -187500.02, 0.00, 0.00, 0.00, 0, -1
164, -187500.02, -187500.02, -43470.39, -31966.39, 5054.98, 9147.03, -187500.02, -187500.02, 0.00, 0.00, 0.00, 0, -1
165, -187500.02, -187500.02, -43881.32, -32097.26, 4883.50, 10487.26, -187500.02, -187500.02, 0.00, 0.00, 0.00, 0, -1
166, -187500.02, -187500.02, -43950.26, -31749.29, 5183.91, 8712.06, -187500.02, -187500.02, 0.00, 0.00, 0.00, 0, -1
167, -187500.02, -187500.02, -43546.88, -31462.74, 5492.94, 6710.33, -187500.02, -187500.02, 0.00, 0.00, 0.00, 0, -1
168, -187500.02, -187500.02, -43414.89, -31894.53, 5117.34, 8638.95, -187500.02, -187500.02, 0.00, 0.00, 0.00, 0, -1
169, -187500.02, -187500.02, -43836.98, -32114.52, 4871.21, 10461.47, -187500.02, -187500.02, -0.08, 0.85, 0.49, 0, -1
170, -187500.02, -187500.02, -43957.16, -31822.20, 5117.70, 9150.20, -187500.02, -187500.02, 0.00, 0.00, 0.00, 0, -1
171, -187500.02, -187500.02, -43659.64, -31500.71, 5448.60, 6787.20, -187500.02, -187500.02, 0.00, 0.00, 0.00, 0, -1
172, -187500.02, -187500.02, -43408.81, -31838.65, 5167.95, 8116.21, -187500.02, -187500.02, 0.00, 0.00, 0.00, 0, -1
173, -187500.02, -187500.02, -43787.76, -32127.10, 4859.38, 10344.12, -187500.02, -187500.02, 0.00, 0.00, 0.00, 0, -1
174, -187500.02, -187500.02, -44003.70, -31940.46, 5002.90, 9573.01, -187500.02, -187500.02, 0.00, 0.00, 0.00, 0, -1
175, -187500.02, -187500.02, -43749.98, -31515.87, 5421.04, 7000.43, -187500.02, -187500.02, 0.00, 0.00, 0.00, 0, -1
176, -187500.02, -187500.02, -43371.86, -31715.27, 5280.69, 7607.48, -187500.02, -187500.02, 0.00, 0.00, 0.00, 0, -1
177, -187500.02, -187500.02, -43705.50, -32098.94, 4888.95, 10117.36, -187500.02, -187500.02, 0.00, 0.00, 0.00, 0, -1
178, -187500.02, -187500.02, -43980.95, -31986.06, 4958.56, 9919.26, -187500.02, -187500.02, 0.00, 0.00, 0.00, 0, -1
179, -187500.02, -187500.02, -43827.01, -31556.57, 5378.34, 7339.17, -187500.02, -187500.02, -0.08, 0.85, 0.48, 0, -1
180, -187500.02, -187500.02, -43407.29, -31644.64, 5350.02, 7192.93, -187500.02, -187500.02, 0.00, 0.00, 0.00, 0, -1
181, -187500.02, -187500.02, -43656.75, -32089.44, 4910.25, 9823.66, -187500.02, -187500.02, 0.00, 0.00, 0.00, 0, -1
182, -187500.02, -187500.02, -43964.74, -32032.66, 4912.27, 10172.68, -187500.02, -187500.02, 0.00, 0.00, 0.00, 0, -1
183, -187500.02, -187500.02, -43858.12, -31574.54, 5335.67, 7743.54, -187500.02, -187500.02, 0.00, 0.00, 0.00, 0, -1
184, -187500.02, -187500.02, -43421.13, -31534.76, 5426.22, 6847.73, -187500.02, -187500.02, 0.00, 0.00, 0.00, 0, -1
185, -187500.02, -187500.02, -43532.10, -32000.92, 4979.90, 9408.83, -187500.02, -187500.02, 0.00, 0.00, 0.00, 0, -1
186, -187500.02, -187500.02, -43897.21, -32046.50, 4896.31, 10330.73, -187500.02, -187500.02, 0.00, 0.00, 0.00, 0, -1
187, -187500.02, -187500.02, -43912.19, -31666.79, 5240.84, 8190.84, -187500.02, -187500.02, 0.00, 0.00, 0.00, 0, -1
188, -187500.02, -187500.02, -43466.96, -31469.49, 5472.85, 6662.74, -187500.02, -187500.02, 0.00, 0.00, 0.00, 0, -1
189, -187500.02, -187500.02, -43447.52, -31940.87, 5044.19, 8952.75, -187500.02, -187500.02, -0.08, 0.86, 0.49, 0, -1
190, -187500.02, -187500.02, -43861.63, -32107.01, 4847.51, 10434.20, -187500.02, -187500.02, 0.00, 0.00, 0.00, 0, -1
191, -187500.02, -187500.02, -43957.23, -31773.88, 5139.60, 8719.33, -187500.02, -187500.02, 0.00, 0.00, 0.00, 0, -1
192, -187500.02, -187500.02, -43561.56, -31477.02, 5456.19, 6646.27, -187500.02, -187500.02, 0.00, 0.00, 0.00, 0, -1
193, -187500.02, -187500.02, -43395.73, -31884.65, 5094.92, 8510.38, -187500.02, -187500.02, 0.00, 0.00, 0.00, 0, -1
194, -187500.02, -187500.02, -43803.61, -32104.64, 4836.20, 10423.29, -187500.02, -187500.02, 0.00, 0.00, 0.00, 0, -1
195, -187500.02, -187500.02, -43921.11, -31801.46, 5093.87, 9195.37, -187500.02, -187500.02, 0.00, 0.00, 0.00, 0, -1
196, -187500.02, -187500.02, -43607.67, -31437.15, 5471.55, 6742.74, -187500.02, -187500.02, 0.00, 0.00, 0.00, 0, -1
197, -187500.02, -187500.02, -43313.34, -31748.33, 5222.95, 7963.10, -187500.02, -187500.02, 0.00, 0.00, 0.00, 0, -1
198, -187500.02, -187500.02, -43704.07, -32079.76, 4881.24, 10284.28, -187500.02, -187500.02, -0.09, 0.86, 0.48, 0, -1
199, -187500.02, -187500.02, -43938.59, -31894.98, 5020.87, 9590.69, -187500.02, -187500.02, 0.00, 0.00, 0.00, 0, -1
200, -187500.02, -187500.02, -43695.42, -31465.69, 5440.03, 6986.17, -187500.02, -187500.02, 0.00, 0.00, 0.00, 0, -1
201, -187500.02, -187500.02, -43325.35, -31670.90, 5286.70, 7468.63, -187500.02, -187500.02, 0.00, 0.00, 0.00, 0, -1
202, -187500.02, -187500.02, -43664.24, -32093.79, 4855.65, 10072.46, -187500.02, -187500.02, 0.00, 0.00, 0.00, 0, -1
203, -187500.02, -187500.02, -43957.90, -31983.87, 4928.47, 9974.20, -187500.02, -187500.02, 0.00, 0.00, 0.00, 0, -1
204, -187500.02, -187500.02, -43807.83, -31535.52, 5361.27, 7369.39, -187500.02, -187500.02, 0.00, 0.00, 0.00, 0, -1
205, -187500.02, -187500.02, -43361.62, -31590.70, 5369.65, 7096.03, -187500.02, -187500.02, 0.00, 0.00, 0.00, 0, -1
206, -187500.02, -187500.02, -43599.02, -32067.13, 4914.92, 9780.70, -187500.02, -187500.02, 0.00, 0.00, 0.00, 0, -1
207, -187500.02, -187500.02, -43931.86, -32033.33, 4902.50, 10232.90, -187500.02, -187500.02, 0.00, 0.00, 0.00, 0, -1
208, -187500.02, -187500.02, -43888.09, -31620.81, 5283.13, 7821.79, -187500.02, -187500.02, -0.09, 0.86, 0.48, 0, -1
209, -187500.02, -187500.02, -43422.98, -31530.46, 5417.68, 6781.03, -187500.02, -187500.02, 0.00, 0.00, 0.00, 0, -1
210, -187500.02, -187500.02, -43528.84, -32038.52, 4947.11, 9377.47, -187500.02, -187500.02, 0.00, 0.00, 0.00, 0, -1
211, -187500.02, -187500.02, -43922.52, -32095.72, 4848.00, 10382.88, -187500.02, -187500.02, 0.00, 0.00, 0.00, 0, -1
212, -187500.02, -187500.02, -43932.24, -31686.55, 5216.18, 8275.89, -187500.02, -187500.02, 0.00, 0.00, 0.00, 0, -1
213, -187500.02, -187500.02, -43479.35, -31462.40, 5480.63, 6583.06, -187500.02, -187500.02, 0.00, 0.00, 0.00, 0, -1
214, -187500.02, -187500.02, -43415.85, -31924.15, 5066.87, 8856.68, -187500.02, -187500.02, 0.00, 0.00, 0.00, 0, -1
215, -187500.02, -187500.02, -43850.30, -32102.78, 4847.22, 10430.84, -187500.02, -187500.02, 0.00, 0.00, 0.00, 0, -1
216, -187500.02, -187500.02, -43980.27, -31795.29, 5104.94, 8772.01, -187500.02, -187500.02, 0.00, 0.00, 0.00, 0, -1
217, -187500.02, -187500.02, -43614.91, -31492.13, 5425.68, 6590.43, -187500.02, -187500.02, 0.00, 0.00, 0.00, 0, -1
218, -187500.02, -187500.02, -43409.25, -31876.47, 5098.59, 8349.74, -187500.02, -187500.02, -0.10, 0.85, 0.48, 0, -1
219, -187500.02, -187500.02, -43833.87, -32141.63, 4804.13, 10389.83, -187500.02, -187500.02, 0.00, 0.00, 0.00, 0, -1
220, -187500.02, -187500.02, -43999.96, -31869.25, 5019.31, 9226.13, -187500.02, -187500.02, 0.00, 0.00, 0.00, 0, -1
221, -187500.02, -187500.02, -43690.48, -31479.41, 5408.92, 6718.67, -187500.02, -187500.02, 0.00, 0.00, 0.00, 0, -1
222, -187500.02, -187500.02, -43373.36, -31776.45, 5178.72, 7824.88, -187500.02, -187500.02, 0.00, 0.00, 0.00, 0, -1
223, -187500.02, -187500.02, -43784.36, -32147.71, 4799.72, 10248.72, -187500.02, -187500.02, 0.00, 0.00, 0.00, 0, -1
224, -187500.02, -187500.02, -44008.86, -31939.95, 4958.20, 9639.03, -187500.02, -187500.02, 0.00, 0.00, 0.00, 0, -1
225, -187500.02, -187500.02, -43785.86, -31511.64, 5372.55, 6997.44, -187500.02, -187500.02, 0.00, 0.00, 0.00, 0, -1
226, -187500.02, -187500.02, -43383.15, -31680.96, 5266.29, 7360.45, -187500.02, -187500.02, 0.00, 0.00, 0.00, 0, -1
227, -187500.02, -187500.02, -43710.09, -32126.59, 4820.87, 10010.09, -187500.02, -187500.02, 0.00, 0.00, 0.00, 0, -1
228, -187500.02, -187500.02, -44028.04, -32038.95, 4858.22, 9992.68, -187500.02, -187500.02, -0.09, 0.86, 0.48, 0, -1
229, -187500.02, -187500.02, -43880.09, -31570.99, 5301.25, 7384.23, -187500.02, -187500.02, 0.00, 0.00, 0.00, 0, -1
230, -187500.02, -187500.02, -43409.97, -31591.20, 5346.72, 6958.05, -187500.02, -187500.02, 0.00, 0.00, 0.00, 0, -1
231, -187500.02, -187500.02, -43582.50, -32037.29, 4915.13, 9650.10, -187500.02, -187500.02, 0.00, 0.00, 0.00, 0, -1
232, -187500.02, -187500.02, -43956.85, -32049.36, 4856.54, 10232.94, -187500.02, -187500.02, 0.00, 0.00, 0.00, 0, -1
233, -187500.02, -187500.02, -43908.01, -31610.02, 5261.76, 7837.10, -187500.02, -187500.02, 0.00, 0.00, 0.00, 0, -1
234, -187500.02, -187500.02, -43455.90, -31519.51, 5398.93, 6695.22, -187500.02, -187500.02, 0.00, 0.00, 0.00, 0, -1
235, -187500.02, -187500.02, -43522.73, -32005.66, 4944.29, 9259.86, -187500.02, -187500.02, 0.00, 0.00, 0.00, 0, -1
236, -187500.02, -187500.02, -43915.63, -32079.85, 4830.93, 10375.70, -187500.02, -187500.02, 0.00, 0.00, 0.00, 0, -1
237, -187500.02, -187500.02, -43945.43, -31690.21, 5179.88, 8327.99, -187500.02, -187500.02, -0.08, 0.86, 0.48, 0, -1
238, -187500.02, -187500.02, -43515.76, -31457.11, 5449.04, 6546.76, -187500.02, -187500.02, 0.00, 0.00, 0.00, 0, -1
239, -187500.02, -187500.02, -43420.16, -31903.78, 5050.47, 8759.29, -187500.02, -187500.02, 0.00, 0.00, 0.00, 0, -1
240, -187500.02, -187500.02, -43845.98, -32081.88, 4836.02, 10412.85, -187500.02, -187500.02, 0.00, 0.00, 0.00, 0, -1
241, -187500.02, -187500.02, -43946.59, -31743.37, 5135.42, 8802.25, -187500.02, -187500.02, 0.00, 0.00, 0.00, 0, -1
242, -187500.02, -187500.02, -43584.80, -31430.04, 5466.10, 6562.00, -187500.02, -187500.02, 0.00, 0.00, 0.00, 0, -1
243, -187500.02, -187500.02, -43377.20, -31818.73, 5123.71, 8240.01, -187500.02, -187500.02, 0.00, 0.00, 0.00, 0, -1
244, -187500.02, -187500.02, -43791.25, -32089.53, 4818.34, 10352.30, -187500.02, -187500.02, 0.00, 0.00, 0.00, 0, -1
245, -187500.02, -187500.02, -43982.58, -31847.23, 5010.43, 9280.89, -187500.02, -187500.02, 0.00, 0.00, 0.00, 0, -1
246, -187500.02, -187500.02, -43673.21, -31425.52, 5437.60, 6724.59, -187500.02, -187500.02, 0.00, 0.00, 0.00, 0, -1
247, -187500.02, -187500.02, -43336.14, -31718.51, 5208.16, 7728.58, -187500.02, -187500.02, -0.08, 0.86, 0.48, 0, -1
248, -187500.02, -187500.02, -43748.26, -32109.38, 4801.58, 10206.79, -187500.02, -187500.02, 0.00, 0.00, 0.00, 0, -1
249, -187500.02, -187500.02, -43980.97, -31920.32, 4940.16, 9691.18, -187500.02, -187500.02, 0.00, 0.00, 0.00, 0, -1
250, -187500.02, -187500.02, -43789.46, -31501.38, 5358.81, 7039.75, -187500.02, -187500.02, 0.00, 0.00, 0.00, 0, -1
251, -187500.02, -187500.02, -43367.16, -31636.81, 5291.82, 7277.19, -187500.02, -187500.02, 0.00, 0.00, 0.00, 0, -1
252, -187500.02, -187500.02, -43673.95, -32084.07, 4848.36, 9945.54, -187500.02, -187500.02, 0.00, 0.00, 0.00, 0, -1
253, -187500.02, -187500.02, -43980.23, -31990.80, 4887.48, 10015.46, -187500.02, -187500.02, 0.00, 0.00, 0.00, 0, -1
254, -187500.02, -187500.02, -43838.41, -31521.75, 5326.71, 7424.78, -187500.02, -187500.02, 0.00, 0.00, 0.00, 0, -1
255, -187500.02, -187500.02, -43385.79, -31547.34, 5354.90, 6903.98, -187500.02, -187500.02, 0.00, 0.00, 0.00, 0, -1
0, -187500.02, -187500.02, -43608.01, -32061.56, 4859.67, 9609.28, -187500.02, -187500.02, 0.00, 0.00, 0.00, 0, -1
1, -187500.02, -187500.02, -43987.43, -32088.19, 4791.52, 10268.41, -187500.02, -187500.02, -0.09, 0.85, 0.48, 0, -1
2, -187500.02, -187500.02, -43948.76, -31646.63, 5201.79, 7931.69, -187500.02, -187500.02, 0.00, 0.00, 0.00, 0, -1
3, -187500.02, -187500.02, -43487.46, -31523.40, 5372.85, 6650.60, -187500.02, -187500.02, 0.00, 0.00, 0.00, 0, -1
4, -187500.02, -187500.02, -43547.16, -32021.38, 4909.69, 9184.13, -187500.02, -187500.02, 0.00, 0.00, 0.00, 0, -1
5, -187500.02, -187500.02, -43933.89, -32096.84, 4791.50, 10372.89, -187500.02, -187500.02, 0.00, 0.00, 0.00, 0, -1
6, -187500.02, -187500.02, -43953.39, -31691.73, 5154.63, 8400.08, -187500.02, -187500.02, 0.00, 0.00, 0.00, 0, -1
7, -187500.02, -187500.02, -43513.23, -31428.81, 5451.86, 6504.83, -187500.02, -187500.02, 0.00, 0.00, 0.00, 0, -1
8, -187500.02, -187500.02, -43427.29, -31911.00, 5021.01, 8658.57, -187500.02, -187500.02, 0.00, 0.00, 0.00, 0, -1
9, -187500.02, -187500.02, -43882.30, -32128.69, 4768.03, 10393.31, -187500.02, -187500.02, 0.00, 0.00, 0.00, 0, -1
10, -187500.02, -187500.02, -43982.46, -31786.91, 5057.15, 8877.69, -187500.02, -187500.02, 0.00, 0.00, 0.00, 0, -1
11, -187500.02, -187500.02, -43614.11, -31436.32, 5416.14, 6549.49, -187500.02, -187500.02, -0.09, 0.85, 0.48, 0, -1
12, -187500.02, -187500.02, -43376.40, -31819.32, 5090.65, 8136.95, -187500.02, -187500.02, 0.00, 0.00, 0.00, 0, -1
13, -187500.02, -187500.02, -43814.89, -32126.65, 4763.29, 10306.46, -187500.02, -187500.02, 0.00, 0.00, 0.00, 0, -1
14, -187500.02, -187500.02, -44007.19, -31889.37, 4960.72, 9348.59, -187500.02, -187500.02, 0.00, 0.00, 0.00, 0, -1
15, -187500.02, -187500.02, -43704.30, -31443.83, 5406.60, 6743.39, -187500.02, -187500.02, 0.00, 0.00, 0.00, 0, -1
16, -187500.02, -187500.02, -43345.71, -31707.78, 5208.72, 7629.79, -187500.02, -187500.02, 0.00, 0.00, 0.00, 0, -1
17, -187500.02, -187500.02, -43725.15, -32089.39, 4815.88, 10121.14, -187500.02, -187500.02, 0.00, 0.00, 0.00, 0, -1
18, -187500.02, -187500.02, -43988.50, -31949.89, 4899.52, 9711.23, -187500.02, -187500.02, 0.00, 0.00, 0.00, 0, -1
19, -187500.02, -187500.02, -43797.10, -31502.12, 5325.41, 7053.20, -187500.02, -187500.02, 0.00, 0.00, 0.00, 0, -1
20, -187500.02, -187500.02, -43365.27, -31620.68, 5266.36, 7146.28, -187500.02, -187500.02, -0.09, 0.85, 0.49, 0, -1
21, -187500.02, -187500.02, -43662.68, -32085.55, 4818.86, 9832.29, -187500.02, -187500.02, 0.00, 0.00, 0.00, 0, -1
22, -187500.02, -187500.02, -43994.63, -32020.77, 4844.09, 9997.85, -187500.02, -187500.02, 0.00, 0.00, 0.00, 0, -1
23, -187500.02, -187500.02, -43879.38, -31562.85, 5270.90, 7441.68, -187500.02, -187500.02, 0.00, 0.00, 0.00, 0, -1
24, -187500.02, -187500.02, -43418.73, -31541.48, 5347.99, 6789.95, -187500.02, -187500.02, 0.00, 0.00, 0.00, 0, -1
25, -187500.02, -187500.02, -43573.92, -32023.92, 4882.83, 9463.82, -187500.02, -187500.02, 0.00, 0.00, 0.00, 0, -1
26, -187500.02, -187500.02, -43941.20, -32040.80, 4817.94, 10239.42, -187500.02, -187500.02, 0.00, 0.00, 0.00, 0, -1
27, -187500.02, -187500.02, -43918.47, -31611.58, 5209.99, 7940.77, -187500.02, -187500.02, 0.00, 0.00, 0.00, 0, -1
28, -187500.02, -187500.02, -43467.19, -31468.57, 5398.71, 6562.38, -187500.02, -187500.02, 0.00, 0.00, 0.00, 0, -1
29, -187500.02, -187500.02, -43506.57, -31973.19, 4929.72, 9038.67, -187500.02, -187500.02, 0.00, 0.00, 0.00, 0, -1
30, -187500.02, -187500.02, -43921.33, -32091.22, 4770.04, 10351.90, -187500.02, -187500.02, -0.08, 0.86, 0.48, 0, -1
31, -187500.02, -187500.02, -43991.36, -31724.57, 5088.51, 8458.08, -187500.02, -187500.02, 0.00, 0.00, 0.00, 0, -1
32, -187500.02, -187500.02, -43566.97, -31444.12, 5396.18, 6488.69, -187500.02, -187500.02, 0.00, 0.00, 0.00, 0, -1
33, -187500.02, -187500.02, -43430.76, -31873.63, 5023.44, 8534.28, -187500.02, -187500.02, 0.00, 0.00, 0.00, 0, -1
34, -187500.02, -187500.02, -43863.53, -32098.33, 4770.56, 10356.37, -187500.02, -187500.02, 0.00, 0.00, 0.00, 0, -1
35, -187500.02, -187500.02, -44008.80, -31801.90, 5022.17, 8929.05, -187500.02, -187500.02, 0.00, 0.00, 0.00, 0, -1
36, -187500.02, -187500.02, -43663.15, -31446.02, 5382.88, 6556.39, -187500.02, -187500.02, 0.00, 0.00, 0.00, 0, -1
37, -187500.02, -187500.02, -43371.48, -31768.96, 5114.66, 7989.43, -187500.02, -187500.02, 0.00, 0.00, 0.00, 0, -1
38, -187500.02, -187500.02, -43793.64, -32108.30, 4753.93, 10261.89, -187500.02, -187500.02, 0.00, 0.00, 0.00, 0, -1
39, -187500.02, -187500.02, -44016.30, -31884.47, 4925.85, 9365.92, -187500.02, -187500.02, 0.00, 0.00, 0.00, 0, -1
40, -187500.02, -187500.02, -43732.06, -31451.05, 5358.67, 6759.82, -187500.02, -187500.02, -0.09, 0.85, 0.49, 0, -1
41, -187500.02, -187500.02, -43344.21, -31661.20, 5213.39, 7484.06, -187500.02, -187500.02, 0.00, 0.00, 0.00, 0, -1
42, -187500.02, -187500.02, -43696.12, -32066.24, 4804.86, 10061.19, -187500.02, -187500.02, 0.00, 0.00, 0.00, 0, -1
43, -187500.02, -187500.02, -43979.13, -31931.75, 4896.78, 9765.75, -187500.02, -187500.02, 0.00, 0.00, 0.00, 0, -1
44, -187500.02, -187500.02, -43794.42, -31483.15, 5331.23, 7101.26, -187500.02, -187500.02, 0.00, 0.00, 0.00, 0, -1
45, -187500.02, -187500.02, -43375.39, -31598.48, 5270.41, 7076.14, -187500.02, -187500.02, 0.00, 0.00, 0.00, 0, -1
46, -187500.02, -187500.02, -43621.13, -32034.68, 4826.19, 9777.23, -187500.02, -187500.02, 0.00, 0.00, 0.00, 0, -1
47, -187500.02, -187500.02, -43962.93, -31995.27, 4808.51, 10059.09, -187500.02, -187500.02, 0.00, 0.00, 0.00, 0, -1
48, -187500.02, -187500.02, -43852.87, -31517.95, 5256.84, 7529.43, -187500.02, -187500.02, 0.00, 0.00, 0.00, 0, -1
49, -187500.02, -187500.02, -43386.46, -31480.24, 5353.13, 6730.91, -187500.02, -187500.02, -0.08, 0.85, 0.49, 0, -1
50, -187500.02, -187500.02, -43524.46, -31970.68, 4886.96, 9392.27, -187500.02, -187500.02, 0.00, 0.00, 0.00, 0, -1
51, -187500.02, -187500.02, -43916.19, -32021.09, 4798.65, 10263.36, -187500.02, -187500.02, 0.00, 0.00, 0.00, 0, -1
52, -187500.02, -187500.02, -43908.04, -31595.91, 5187.91, 8020.01, -187500.02, -187500.02, 0.00, 0.00, 0.00, 0, -1
53, -187500.02, -187500.02, -43453.27, -31424.74, 5404.56, 6524.32, -187500.02, -187500.02, 0.00, 0.00, 0.00, 0, -1
54, -187500.02, -187500.02, -43448.86, -31916.32, 4959.92, 8937.19, -187500.02, -187500.02, 0.00, 0.00, 0.00, 0, -1
55, -187500.02, -187500.02, -43884.23, -32068.31, 4764.18, 10358.83, -187500.02, -187500.02, 0.00, 0.00, 0.00, 0, -1
56, -187500.02, -187500.02, -43964.41, -31702.51, 5072.42, 8532.42, -187500.02, -187500.02, 0.00, 0.00, 0.00, 0, -1
57, -187500.02, -187500.02, -43537.06, -31387.03, 5411.56, 6465.26, -187500.02, -187500.02, 0.00, 0.00, 0.00, 0, -1
58, -187500.02, -187500.02, -43376.49, -31823.85, 5037.70, 8433.67, -187500.02, -187500.02, 0.00, 0.00, 0.00, 0, -1
59, -187500.02, -187500.02, -43832.26, -32090.11, 4756.41, 10344.97, -187500.02, -187500.02, -0.08, 0.85, 0.49, 0, -1
60, -187500.02, -187500.02, -43982.82, -31792.92, 5005.94, 9006.17, -187500.02, -187500.02, 0.00, 0.00, 0.00, 0, -1
61, -187500.02, -187500.02, -43643.79, -31411.08, 5399.15, 6550.89, -187500.02, -187500.02, 0.00, 0.00, 0.00, 0, -1
62, -187500.02, -187500.02, -43356.95, -31765.38, 5108.20, 7913.12, -187500.02, -187500.02, 0.00, 0.00, 0.00, 0, -1
63, -187500.02, -187500.02, -43804.75, -32127.99, 4723.24, 10237.01, -187500.02, -187500.02, 0.00, 0.00, 0.00, 0, -1
64, -187500.02, -187500.02, -44013.94, -31897.73, 4899.93, 9457.27, -187500.02, -187500.02, 0.00, 0.00, 0.00, 0, -1
65, -187500.02, -187500.02, -43738.14, -31431.69, 5350.96, 6787.20, -187500.02, -187500.02, 0.00, 0.00, 0.00, 0, -1
66, -187500.02, -187500.02, -43327.87, -31633.78, 5208.63, 7406.97, -187500.02, -187500.02, 0.00, 0.00, 0.00, 0, -1
67, -187500.02, -187500.02, -43703.02, -32076.47, 4761.77, 10018.79, -187500.02, -187500.02, 0.00, 0.00, 0.00, 0, -1
68, -187500.02, -187500.02, -43999.34, -31959.48, 4843.35, 9798.29, -187500.02, -187500.02, 0.00, 0.00, 0.00, 0, -1
69, -187500.02, -187500.02, -43824.33, -31495.89, 5293.97, 7140.29, -187500.02, -187500.02, -0.08, 0.85, 0.49, 0, -1
70, -187500.02, -187500.02, -43389.59, -31589.67, 5261.11, 6957.94, -187500.02, -187500.02, 0.00, 0.00, 0.00, 0, -1
71, -187500.02, -187500.02, -43644.26, -32070.35, 4786.27, 9682.08, -187500.02, -187500.02, 0.00, 0.00, 0.00, 0, -1
72, -187500.02, -187500.02, -43986.49, -32028.28, 4775.70, 10077.04, -187500.02, -187500.02, 0.00, 0.00, 0.00, 0, -1
73, -187500.02, -187500.02, -43904.93, -31568.57, 5198.12, 7572.90, -187500.02, -187500.02, 0.00, 0.00, 0.00, 0, -1
74, -187500.02, -187500.02, -43433.37, -31506.62, 5304.81, 6646.51, -187500.02, -187500.02, 0.00, 0.00, 0.00, 0, -1
75, -187500.02, -187500.02, -43555.64, -32009.84, 4832.40, 9315.49, -187500.02, -187500.02, 0.00, 0.00, 0.00, 0, -1
76, -187500.02, -187500.02, -43940.93, -32050.28, 4750.93, 10268.99, -187500.02, -187500.02, 0.00, 0.00, 0.00, 0, -1
77, -187500.02, -187500.02, -43951.15, -31640.99, 5132.65, 8088.02, -187500.02, -187500.02, 0.00, 0.00, 0.00, 0, -1
78, -187500.02, -187500.02, -43483.11, -31418.26, 5393.79, 6451.23, -187500.02, -187500.02, 0.00, 0.00, 0.00, 0, -1
79, -187500.02, -187500.02, -43431.88, -31888.14, 4964.23, 8821.29, -187500.02, -187500.02, -0.08, 0.86, 0.48, 0, -1
80, -187500.02, -187500.02, -43879.54, -32066.86, 4745.92, 10330.48, -187500.02, -187500.02, 0.00, 0.00, 0.00, 0, -1
81, -187500.02, -187500.02, -43968.20, -31701.97, 5062.02, 8554.08, -187500.02, -187500.02, 0.00, 0.00, 0.00, 0, -1
82, -187500.02, -187500.02, -43550.23, -31380.46, 5407.94, 6409.27, -187500.02, -187500.02, 0.00, 0.00, 0.00, 0, -1
83, -187500.02, -187500.02, -43367.95, -31798.89, 5043.40, 8281.08, -187500.02, -187500.02, 0.00, 0.00, 0.00, 0, -1
84, -187500.02, -187500.02, -43835.64, -32093.01, 4716.06, 10315.35, -187500.02, -187500.02, 0.00, 0.00, 0.00, 0, -1
85, -187500.02, -187500.02, -43990.80, -31783.22, 4978.69, 9047.63, -187500.02, -187500.02, 0.00, 0.00, 0.00, 0, -1
86, -187500.02, -187500.02, -43625.89, -31364.73, 5407.29, 6539.27, -187500.02, -187500.02, 0.00, 0.00, 0.00, 0, -1
87, -187500.02, -187500.02, -43328.59, -31707.89, 5123.98, 7787.37, -187500.02, -187500.02, 0.00, 0.00, 0.00, 0, -1
88, -187500.02, -187500.02, -43753.18, -32070.53, 4738.68, 10188.21, -187500.02, -187500.02, -0.08, 0.86, 0.48, 0, -1
89, -187500.02, -187500.02, -43980.72, -31865.43, 4896.80, 9491.09, -187500.02, -187500.02, 0.00, 0.00, 0.00, 0, -1
90, -187500.02, -187500.02, -43764.54, -31449.17, 5306.84, 6818.94, -187500.02, -187500.02, 0.00, 0.00, 0.00, 0, -1
91, -187500.02, -187500.02, -43361.62, -31641.66, 5171.66, 7299.27, -187500.02, -187500.02, 0.00, 0.00, 0.00, 0, -1
92, -187500.02, -187500.02, -43706.51, -32081.21, 4728.06, 9963.87, -187500.02, -187500.02, 0.00, 0.00, 0.00, 0, -1
93, -187500.02, -187500.02, -44014.76, -31981.68, 4786.92, 9855.76, -187500.02, -187500.02, 0.00, 0.00, 0.00, 0, -1
94, -187500.02, -187500.02, -43837.49, -31483.48, 5259.66, 7177.37, -187500.02, -187500.02, 0.00, 0.00, 0.00, 0, -1
95, -187500.02, -187500.02, -43357.67, -31523.92, 5280.64, 6859.21, -187500.02, -187500.02, 0.00, 0.00, 0.00, 0, -1
96, -187500.02, -187500.02, -43601.17, -32025.91, 4791.90, 9613.10, -187500.02, -187500.02, 0.00, 0.00, 0.00, 0, -1
97, -187500.02, -187500.02, -43950.70, -31993.82, 4778.60, 10100.95, -187500.02, -187500.02, 0.00, 0.00, 0.00, 0, -1
98, -187500.02, -187500.02, -43871.45, -31525.10, 5211.76, 7627.13, -187500.02, -187500.02, -0.08, 0.86, 0.48, 0, -1
99, -187500.02, -187500.02, -43414.26, -31457.17, 5327.83, 6569.65, -187500.02, -187500.02, 0.00, 0.00, 0.00, 0, -1
100, -187500.02, -187500.02, -43520.05, -31974.66, 4833.88, 9205.28, -187500.02, -187500.02, 0.00, 0.00, 0.00, 0, -1
101, -187500.02, -187500.02, -43944.58, -32069.23, 4704.51, 10284.84, -187500.02, -187500.02, 0.00, 0.00, 0.00, 0, -1
102, -187500.02, -187500.02, -43964.56, -31658.36, 5079.37, 8149.74, -187500.02, -187500.02, 0.00, 0.00, 0.00, 0, -1
103, -187500.02, -187500.02, -43534.54, -31459.07, 5312.70, 6426.75, -187500.02, -187500.02, 0.00, 0.00, 0.00, 0, -1
104, -187500.02, -187500.02, -43483.29, -31943.26, 4875.21, 8753.39, -187500.02, -187500.02, 0.00, 0.00, 0.00, 0, -1
105, -187500.02, -187500.02, -43913.75, -32104.97, 4676.16, 10343.29, -187500.02, -187500.02, 0.00, 0.00, 0.00, 0, -1
106, -187500.02, -187500.02, -43998.56, -31739.19, 4995.03, 8664.32, -187500.02, -187500.02, 0.00, 0.00, 0.00, 0, -1
107, -187500.02, -187500.02, -43571.50, -31366.65, 5386.81, 6390.43, -187500.02, -187500.02, 0.00, 0.00, 0.00, 0, -1
108, -187500.02, -187500.02, -43375.66, -31807.45, 5006.75, 8209.10, -187500.02, -187500.02, -0.08, 0.85, 0.49, 0, -1
109, -187500.02, -187500.02, -43828.13, -32087.13, 4694.58, 10283.61, -187500.02, -187500.02, 0.00, 0.00, 0.00, 0, -1
110, -187500.02, -187500.02, -43990.04, -31805.21, 4927.17, 9125.28, -187500.02, -187500.02, 0.00, 0.00, 0.00, 0, -1
111, -187500.02, -187500.02, -43656.62, -31374.45, 5364.15, 6534.76, -187500.02, -187500.02, 0.00, 0.00, 0.00, 0, -1
112, -187500.02, -187500.02, -43318.77, -31679.60, 5127.13, 7662.27, -187500.02, -187500.02, 0.00, 0.00, 0.00, 0, -1
113, -187500.02, -187500.02, -43760.69, -32095.96, 4701.53, 10137.50, -187500.02, -187500.02, 0.00, 0.00, 0.00, 0, -1
114, -187500.02, -187500.02, -44017.09, -31904.03, 4840.34, 9538.23, -187500.02, -187500.02, 0.00, 0.00, 0.00, 0, -1
115, -187500.02, -187500.02, -43768.94, -31431.33, 5298.21, 6812.65, -187500.02, -187500.02, 0.00, 0.00, 0.00, 0, -1
116, -187500.02, -187500.02, -43354.25, -31610.44, 5181.00, 7157.43, -187500.02, -187500.02, 0.00, 0.00, 0.00, 0, -1
117, -187500.02, -187500.02, -43679.60, -32065.48, 4723.86, 9874.80, -187500.02, -187500.02, 0.00, 0.00, 0.00, 0, -1
118, -187500.02, -187500.02, -44009.55, -31968.40, 4770.94, 9873.57, -187500.02, -187500.02, -0.07, 0.85, 0.49, 0, -1
119, -187500.02, -187500.02, -43850.52, -31482.07, 5234.76, 7204.26, -187500.02, -187500.02, 0.00, 0.00, 0.00, 0, -1
120, -187500.02, -187500.02, -43396.52, -31534.49, 5241.84, 6777.32, -187500.02, -187500.02, 0.00, 0.00, 0.00, 0, -1
121, -187500.02, -187500.02, -43608.86, -32036.02, 4763.07, 9553.29, -187500.02, -187500.02, 0.00, 0.00, 0.00, 0, -1
122, -187500.02, -187500.02, -43994.96, -32043.91, 4712.62, 10161.53, -187500.02, -187500.02, 0.00, 0.00, 0.00, 0, -1
123, -187500.02, -187500.02, -43924.13, -31553.71, 5166.85, 7700.22, -187500.02, -187500.02, 0.00, 0.00, 0.00, 0, -1
124, -187500.02, -187500.02, -43442.16, -31448.39, 5326.82, 6492.60, -187500.02, -187500.02, 0.00, 0.00, 0.00, 0, -1
125, -187500.02, -187500.02, -43524.63, -31972.85, 4831.26, 9130.96, -187500.02, -187500.02, 0.00, 0.00, 0.00, 0, -1
126, -187500.02, -187500.02, -43943.57, -32064.22, 4690.47, 10293.34, -187500.02, -187500.02, 0.00, 0.00, 0.00, 0, -1
127, -187500.02, -187500.02, -43985.86, -31655.90, 5052.43, 8218.24, -187500.02, -187500.02, -0.08, 0.85, 0.49, 0, -1
128, -187500.02, -187500.02, -43478.75, -31343.54, 5394.77, 6346.46, -187500.02, -187500.02, 0.00, 0.00, 0.00, 0, -1
129, -187500.02, -187500.02, -43393.59, -31852.62, 4948.03, 8629.32, -187500.02, -187500.02, 0.00, 0.00, 0.00, 0, -1
130, -187500.02, -187500.02, -43877.84, -32079.69, 4689.31, 10338.67, -187500.02, -187500.02, 0.00, 0.00, 0.00, 0, -1
131, -187500.02, -187500.02, -43971.49, -31704.18, 5019.71, 8701.60, -187500.02, -187500.02, 0.00, 0.00, 0.00, 0, -1
132, -187500.02, -187500.02, -43577.18, -31360.03, 5382.14, 6369.17, -187500.02, -187500.02, 0.00, 0.00, 0.00, 0, -1
133, -187500.02, -187500.02, -43352.77, -31773.81, 5021.74, 8072.98, -187500.02, -187500.02, 0.00, 0.00, 0.00, 0, -1
134, -187500.02, -187500.02, -43781.86, -32062.88, 4710.41, 10250.31, -187500.02, -187500.02, 0.00, 0.00, 0.00, 0, -1
135, -187500.02, -187500.02, -43967.58, -31795.49, 4925.68, 9172.89, -187500.02, -187500.02, 0.00, 0.00, 0.00, 0, -1
136, -187500.02, -187500.02, -43654.16, -31369.55, 5348.01, 6561.82, -187500.02, -187500.02, 0.00, 0.00, 0.00, 0, -1
137, -187500.02, -187500.02, -43321.08, -31673.11, 5118.37, 7555.43, -187500.02, -187500.02, -0.08, 0.85, 0.49, 0, -1
138, -187500.02, -187500.02, -43726.87, -32067.80, 4709.49, 10088.04, -187500.02, -187500.02, 0.00, 0.00, 0.00, 0, -1
139, -187500.02, -187500.02, -43991.09, -31892.34, 4830.41, 9596.41, -187500.02, -187500.02, 0.00, 0.00, 0.00, 0, -1
140, -187500.02, -187500.02, -43762.99, -31422.73, 5286.84, 6895.04, -187500.02, -187500.02, 0.00, 0.00, 0.00, 0, -1
141, -187500.02, -187500.02, -43344.97, -31582.39, 5196.29, 7094.69, -187500.02, -187500.02, 0.00, 0.00, 0.00, 0, -1
142, -187500.02, -187500.02, -43663.62, -32052.82, 4724.13, 9803.99, -187500.02, -187500.02, 0.00, 0.00, 0.00, 0, -1
143, -187500.02, -187500.02, -43987.45, -31972.52, 4750.17, 9906.94, -187500.02, -187500.02, 0.00, 0.00, 0.00, 0, -1
144, -187500.02, -187500.02, -43844.11, -31496.07, 5197.09, 7316.26, -187500.02, -187500.02, 0.00, 0.00, 0.00, 0, -1
145, -187500.02, -187500.02, -43381.79, -31487.66, 5258.76, 6735.41, -187500.02, -187500.02, 0.00, 0.00, 0.00, 0, -1
146, -187500.02, -187500.02, -43548.95, -31959.48, 4805.38, 9403.76, -187500.02, -187500.02, 0.00, 0.00, 0.00, 0, -1
147, -187500.02, -187500.02, -43914.25, -31968.56, 4745.97, 10086.29, -187500.02, -187500.02, -0.08, 0.85, 0.48, 0, -1
148, -187500.02, -187500.02, -43878.57, -31568.53, 5111.26, 7827.25, -187500.02, -187500.02, 0.00, 0.00, 0.00, 0, -1
149, -187500.02, -187500.02, -43473.31, -31468.30, 5258.54, 6580.20, -187500.02, -187500.02, 0.00, 0.00, 0.00, 0, -1
150, -187500.02, -187500.02, -43502.77, -31900.36, 4858.80, 8914.14, -187500.02, -187500.02, 0.00, 0.00, 0.00, 0, -1
151, -187500.02, -187500.02, -43856.40, -31990.73, 4729.99, 10096.51, -187500.02, -187500.02, 0.00, 0.00, 0.00, 0, -1
152, -187500.02, -187500.02, -43905.17, -31685.70, 5003.91, 8331.46, -187500.02, -187500.02, 0.00, 0.00, 0.00, 0, -1
153, -187500.02, -187500.02, -43574.50, -31485.69, 5230.11, 6586.23, -187500.02, -187500.02, 0.00, 0.00, 0.00, 0, -1
154, -187500.02, -187500.02, -43434.49, -31803.69, 4963.76, 8428.13, -187500.02, -187500.02, 0.00, 0.00, 0.00, 0, -1
155, -187500.02, -187500.02, -43784.20, -31984.16, 4766.13, 10068.59, -187500.02, -187500.02, 0.00, 0.00, 0.00, 0, -1
156, -187500.02, -187500.02, -43903.32, -31748.75, 4962.60, 8787.12, -187500.02, -187500.02, 0.00, 0.00, 0.00, 0, -1
157, -187500.02, -187500.02, -43633.60, -31481.80, 5246.09, 6667.08, -187500.02, -187500.02, -0.09, 0.86, 0.48, 0, -1
158, -187500.02, -187500.02, -43412.20, -31749.33, 5020.56, 7988.31, -187500.02, -187500.02, 0.00, 0.00, 0.00, 0, -1
159, -187500.02, -187500.02, -43739.59, -31990.71, 4749.57, 9976.57, -187500.02, -187500.02, 0.00, 0.00, 0.00, 0, -1
160, -187500.02, -187500.02, -43913.35, -31819.63, 4874.04, 9206.01, -187500.02, -187500.02, 0.00, 0.00, 0.00, 0, -1
161, -187500.02, -187500.02, -43711.70, -31487.19, 5203.69, 6871.28, -187500.02, -187500.02, 0.00, 0.00, 0.00, 0, -1
162, -187500.02, -187500.02, -43386.03, -31645.49, 5101.36, 7535.04, -187500.02, -187500.02, 0.00, 0.00, 0.00, 0, -1
163, -187500.02, -187500.02, -43662.63, -31950.05, 4797.31, 9778.44, -187500.02, -187500.02, 0.00, 0.00, 0.00, 0, -1
164, -187500.02, -187500.02, -43915.66, -31891.18, 4818.54, 9522.33, -187500.02, -187500.02, 0.00, 0.00, 0.00, 0, -1
165, -187500.02, -187500.02, -43801.97, -31542.76, 5146.51, 7173.17, -187500.02, -187500.02, 0.00, 0.00, 0.00, 0, -1
166, -187500.02, -187500.02, -43442.09, -31607.38, 5130.02, 7133.25, -187500.02, -187500.02, -0.08, 0.86, 0.48, 0, -1
167, -187500.02, -187500.02, -43643.43, -31951.13, 4787.05, 9512.21, -187500.02, -187500.02, 0.00, 0.00, 0.00, 0, -1
168, -187500.02, -187500.02, -43898.69, -31908.92, 4785.58, 9766.28, -187500.02, -187500.02, 0.00, 0.00, 0.00, 0, -1
169, -187500.02, -187500.02, -43830.14, -31551.74, 5119.80, 7529.10, -187500.02, -187500.02, 0.00, 0.00, 0.00, 0, -1
170, -187500.02, -187500.02, -43438.91, -31499.02, 5221.23, 6832.17, -187500.02, -187500.02, 0.00, 0.00, 0.00, 0, -1
171, -187500.02, -187500.02, -43536.12, -31876.54, 4864.61, 9172.33, -187500.02, -187500.02, 0.00, 0.00, 0.00, 0, -1
172, -187500.02, -187500.02, -43875.29, -31959.75, 4748.43, 9958.62, -187500.02, -187500.02, 0.00, 0.00, 0.00, 0, -1
173, -187500.02, -187500.02, -43902.22, -31655.61, 5023.24, 7993.23, -187500.02, -187500.02, 0.00, 0.00, 0.00, 0, -1
174, -187500.02, -187500.02, -43533.60, -31496.31, 5213.50, 6676.44, -187500.02, -187500.02, 0.00, 0.00, 0.00, 0, -1
175, -187500.02, -187500.02, -43511.74, -31859.95, 4885.35, 8802.54, -187500.02, -187500.02, 0.00, 0.00, 0.00, 0, -1
176, -187500.02, -187500.02, -43853.76, -31980.09, 4723.88, 10049.37, -187500.02, -187500.02, -0.08, 0.85, 0.49, 0, -1
177, -187500.02, -187500.02, -43931.68, -31710.15, 4948.92, 8433.49, -187500.02, -187500.02, 0.00, 0.00, 0.00, 0, -1
178, -187500.02, -187500.02, -43590.86, -31447.56, 5234.87, 6601.27, -187500.02, -187500.02, 0.00, 0.00, 0.00, 0, -1
179, -187500.02, -187500.02, -43451.01, -31784.45, 4950.62, 8329.74, -187500.02, -187500.02, 0.00, 0.00, 0.00, 0, -1
180, -187500.02, -187500.02, -43799.36, -31972.69, 4727.53, 10027.39, -187500.02, -187500.02, 0.00, 0.00, 0.00, 0, -1
181, -187500.02, -187500.02, -43915.28, -31736.79, 4920.92, 8823.35, -187500.02, -187500.02, 0.00, 0.00, 0.00, 0, -1
182, -187500.02, -187500.02, -43657.67, -31459.54, 5211.73, 6673.81, -187500.02, -187500.02, 0.00, 0.00, 0.00, 0, -1
183, -187500.02, -187500.02, -43421.55, -31715.16, 5008.49, 7846.67, -187500.02, -187500.02, 0.00, 0.00, 0.00, 0, -1
184, -187500.02, -187500.02, -43741.85, -31970.62, 4737.81, 9923.62, -187500.02, -187500.02, 0.00, 0.00, 0.00, 0, -1
185, -187500.02, -187500.02, -43930.18, -31819.47, 4850.73, 9232.48, -187500.02, -187500.02, 0.00, 0.00, 0.00, 0, -1
186, -187500.02, -187500.02, -43745.69, -31493.99, 5175.39, 6893.12, -187500.02, -187500.02, -0.08, 0.84, 0.49, 0, -1
187, -187500.02, -187500.02, -43420.41, -31648.15, 5074.85, 7438.62, -187500.02, -187500.02, 0.00, 0.00, 0.00, 0, -1
188, -187500.02, -187500.02, -43673.30, -31950.05, 4765.46, 9743.97, -187500.02, -187500.02, 0.00, 0.00, 0.00, 0, -1
189, -187500.02, -187500.02, -43912.41, -31871.11, 4800.91, 9575.38, -187500.02, -187500.02, 0.00, 0.00, 0.00, 0, -1
190, -187500.02, -187500.02, -43794.60, -31517.79, 5138.20, 7208.75, -187500.02, -187500.02, 0.00, 0.00, 0.00, 0, -1
191, -187500.02, -187500.02, -43425.68, -31578.12, 5133.75, 7072.07, -187500.02, -187500.02, 0.00, 0.00, 0.00, 0, -1
192, -187500.02, -187500.02, -43629.48, -31960.24, 4763.11, 9487.20, -187500.02, -187500.02, 0.00, 0.00, 0.00, 0, -1
193, -187500.02, -187500.02, -43905.35, -31939.86, 4737.81, 9829.74, -187500.02, -187500.02, 0.00, 0.00, 0.00, 0, -1
194, -187500.02, -187500.02, -43865.72, -31595.51, 5046.98, 7617.32, -187500.02, -187500.02, 0.00, 0.00, 0.00, 0, -1
195, -187500.02, -187500.02, -43470.32, -31520.47, 5167.48, 6775.80, -187500.02, -187500.02, 0.00, 0.00, 0.00, 0, -1
196, -187500.02, -187500.02, -43559.73, -31920.17, 4797.89, 9119.60, -187500.02, -187500.02, -0.08, 0.85, 0.49, 0, -1
197, -187500.02, -187500.02, -43874.44, -31968.22, 4710.25, 9976.72, -187500.02, -187500.02, 0.00, 0.00, 0.00, 0, -1
198, -187500.02, -187500.02, -43899.70, -31656.08, 4993.58, 8034.74, -187500.02, -187500.02, 0.00, 0.00, 0.00, 0, -1
199, -187500.02, -187500.02, -43547.10, -31501.59, 5182.88, 6616.94, -187500.02, -187500.02, 0.00, 0.00, 0.00, 0, -1
200, -187500.02, -187500.02, -43486.46, -31845.85, 4875.88, 8678.80, -187500.02, -187500.02, 0.00, 0.00, 0.00, 0, -1
201, -187500.02, -187500.02, -43825.89, -31979.73, 4715.08, 10033.05, -187500.02, -187500.02, 0.00, 0.00, 0.00, 0, -1
202, -187500.02, -187500.02, -43909.02, -31714.13, 4945.19, 8490.11, -187500.02, -187500.02, 0.00, 0.00, 0.00, 0, -1
203, -187500.02, -187500.02, -43598.66, -31470.41, 5208.31, 6593.00, -187500.02, -187500.02, 0.00, 0.00, 0.00, 0, -1
204, -187500.02, -187500.02, -43433.84, -31779.26, 4942.28, 8251.12, -187500.02, -187500.02, 0.00, 0.00, 0.00, 0, -1
205, -187500.02, -187500.02, -43766.17, -31967.60, 4724.44, 10007.32, -187500.02, -187500.02, -0.09, 0.85, 0.49, 0, -1
206, -187500.02, -187500.02, -43914.94, -31776.45, 4877.58, 8917.36, -187500.02, -187500.02, 0.00, 0.00, 0.00, 0, -1
207, -187500.02, -187500.02, -43657.71, -31450.29, 5208.94, 6692.98, -187500.02, -187500.02, 0.00, 0.00, 0.00, 0, -1
208, -187500.02, -187500.02, -43380.69, -31681.96, 5028.16, 7775.57, -187500.02, -187500.02, 0.00, 0.00, 0.00, 0, -1
209, -187500.02, -187500.02, -43709.21, -31960.00, 4725.69, 9883.90, -187500.02, -187500.02, 0.00, 0.00, 0.00, 0, -1
210, -187500.02, -187500.02, -43897.46, -31817.13, 4828.40, 9285.56, -187500.02, -187500.02, 0.00, 0.00, 0.00, 0, -1
211, -187500.02, -187500.02, -43732.24, -31482.28, 5155.97, 6930.96, -187500.02, -187500.02, 0.00, 0.00, 0.00, 0, -1
212, -187500.02, -187500.02, -43404.05, -31626.02, 5064.41, 7341.36, -187500.02, -187500.02, 0.00, 0.00, 0.00, 0, -1
213, -187500.02, -187500.02, -43658.14, -31947.62, 4738.86, 9676.29, -187500.02, -187500.02, 0.00, 0.00, 0.00, 0, -1
214, -187500.02, -187500.02, -43891.58, -31864.58, 4778.27, 9599.36, -187500.02, -187500.02, 0.00, 0.00, 0.00, 0, -1
215, -187500.02, -187500.02, -43799.20, -31524.52, 5096.56, 7265.39, -187500.02, -187500.02, -0.09, 0.84, 0.49, 0, -1
216, -187500.02, -187500.02, -43421.26, -31537.60, 5138.76, 6989.46, -187500.02, -187500.02, 0.00, 0.00, 0.00, 0, -1
217, -187500.02, -187500.02, -43586.77, -31901.57, 4788.24, 9386.93, -187500.02, -187500.02, 0.00, 0.00, 0.00, 0, -1
218, -187500.02, -187500.02, -43878.84, -31916.17, 4727.24, 9836.15, -187500.02, -187500.02, 0.00, 0.00, 0.00, 0, -1
219, -187500.02, -187500.02, -43866.23, -31586.01, 5020.27, 7677.49, -187500.02, -187500.02, 0.00, 0.00, 0.00, 0, -1
220, -187500.02, -187500.02, -43473.83, -31495.87, 5153.91, 6717.10, -187500.02, -187500.02, 0.00, 0.00, 0.00, 0, -1
221, -187500.02, -187500.02, -43523.81, -31868.15, 4808.89, 9018.28, -187500.02, -187500.02, 0.00, 0.00, 0.00, 0, -1
222, -187500.02, -187500.02, -43831.99, -31922.11, 4718.50, 9957.66, -187500.02, -187500.02, 0.00, 0.00, 0.00, 0, -1
223, -187500.02, -187500.02, -43875.29, -31625.75, 4985.18, 8091.98, -187500.02, -187500.02, 0.00, 0.00, 0.00, 0, -1
224, -187500.02, -187500.02, -43504.45, -31419.85, 5223.58, 6563.57, -187500.02, -187500.02, 0.00, 0.00, 0.00, 0, -1
225, -187500.02, -187500.02, -43413.73, -31764.06, 4915.95, 8556.67, -187500.02, -187500.02, -0.09, 0.84, 0.50, 0, -1
226, -187500.02, -187500.02, -43781.97, -31941.42, 4695.43, 10008.15, -187500.02, -187500.02, 0.00, 0.00, 0.00, 0, -1
227, -187500.02, -187500.02, -43888.36, -31690.28, 4902.27, 8528.60, -187500.02, -187500.02, 0.00, 0.00, 0.00, 0, -1
228, -187500.02, -187500.02, -43586.50, -31436.63, 5182.90, 6578.43, -187500.02, -187500.02, 0.00, 0.00, 0.00, 0, -1
229, -187500.02, -187500.02, -43407.15, -31744.21, 4940.27, 8120.90, -187500.02, -187500.02, 0.00, 0.00, 0.00, 0, -1
230, -187500.02, -187500.02, -43772.18, -31984.54, 4685.91, 9983.38, -187500.02, -187500.02, 0.00, 0.00, 0.00, 0, -1
231, -187500.02, -187500.02, -43924.71, -31773.92, 4851.04, 8965.24, -187500.02, -187500.02, 0.00, 0.00, 0.00, 0, -1
232, -187500.02, -187500.02, -43652.11, -31422.06, 5202.10, 6706.66, -187500.02, -187500.02, 0.00, 0.00, 0.00, 0, -1
233, -187500.02, -187500.02, -43390.37, -31669.22, 5011.02, 7683.23, -187500.02, -187500.02, 0.00, 0.00, 0.00, 0, -1
234, -187500.02, -187500.02, -43702.02, -31947.39, 4712.04, 9851.93, -187500.02, -187500.02, -0.08, 0.85, 0.49, 0, -1
235, -187500.02, -187500.02, -43904.28, -31822.27, 4794.14, 9357.24, -187500.02, -187500.02, 0.00, 0.00, 0.00, 0, -1
236, -187500.02, -187500.02, -43730.05, -31455.65, 5147.85, 6976.90, -187500.02, -187500.02, 0.00, 0.00, 0.00, 0, -1
237, -187500.02, -187500.02, -43365.33, -31554.96, 5100.18, 7257.07, -187500.02, -187500.02, 0.00, 0.00, 0.00, 0, -1
238, -187500.02, -187500.02, -43615.05, -31904.25, 4748.02, 9631.43, -187500.02, -187500.02, 0.00, 0.00, 0.00, 0, -1
239, -187500.02, -187500.02, -43869.61, -31843.30, 4770.96, 9641.33, -187500.02, -187500.02, 0.00, 0.00, 0.00, 0, -1
240, -187500.02, -187500.02, -43764.34, -31473.11, 5121.97, 7307.48, -187500.02, -187500.02, 0.00, 0.00, 0.00, 0, -1
241, -187500.02, -187500.02, -43388.51, -31491.82, 5152.26, 6912.30, -187500.02, -187500.02, 0.00, 0.00, 0.00, 0, -1
242, -187500.02, -187500.02, -43545.38, -31881.12, 4776.88, 9316.94, -187500.02, -187500.02, 0.00, 0.00, 0.00, 0, -1
243, -187500.02, -187500.02, -43858.12, -31908.92, 4709.62, 9867.58, -187500.02, -187500.02, 0.00, 0.00, 0.00, 0, -1
244, -187500.02, -187500.02, -43805.39, -31524.03, 5062.83, 7719.38, -187500.02, -187500.02, -0.08, 0.85, 0.49, 0, -1
245, -187500.02, -187500.02, -43425.75, -31440.37, 5196.42, 6671.68, -187500.02, -187500.02, 0.00, 0.00, 0.00, 0, -1
246, -187500.02, -187500.02, -43493.79, -31857.81, 4810.83, 8955.99, -187500.02, -187500.02, 0.00, 0.00, 0.00, 0, -1
247, -187500.02, -187500.02, -43803.34, -31909.28, 4725.16, 9983.94, -187500.02, -187500.02, 0.00, 0.00, 0.00, 0, -1
248, -187500.02, -187500.02, -43834.79, -31593.45, 5007.17, 8167.08, -187500.02, -187500.02, 0.00, 0.00, 0.00, 0, -1
249, -187500.02, -187500.02, -43491.00, -31397.65, 5227.42, 6555.39, -187500.02, -187500.02, 0.00, 0.00, 0.00, 0, -1
250, -187500.02, -187500.02, -43401.52, -31750.70, 4915.75, 8509.06, -187500.02, -187500.02, 0.00, 0.00, 0.00, 0, -1
251, -187500.02, -187500.02, -43773.57, -31939.26, 4700.64, 10023.21, -187500.02, -187500.02, 0.00, 0.00, 0.00, 0, -1
252, -187500.02, -187500.02, -43889.30, -31695.91, 4909.00, 8632.04, -187500.02, -187500.02, 0.00, 0.00, 0.00, 0, -1
253, -187500.02, -187500.02, -43599.45, -31433.62, 5185.47, 6593.29, -187500.02, -187500.02, 0.00, 0.00, 0.00, 0, -1
254, -187500.02, -187500.02, -43396.58, -31726.91, 4940.47, 8082.37, -187500.02, -187500.02, -0.08, 0.85, 0.48, 0, -1
255, -187500.02, -187500.02, -43757.90, -31979.02, 4672.03, 9979.34, -187500.02, -187500.02, 0.00, 0.00, 0.00, 0, -1
0, -187500.02, -187500.02, -43912.82, -31781.47, 4822.81, 9068.39, -187500.02, -187500.02, 0.00, 0.00, 0.00, 0, -1
1, -187500.02, -187500.02, -43673.43, -31434.62, 5171.12, 6757.00, -187500.02, -187500.02, 0.00, 0.00, 0.00, 0, -1
2, -187500.02, -187500.02, -43377.00, -31648.21, 5012.60, 7609.90, -187500.02, -187500.02, 0.00, 0.00, 0.00, 0, -1
3, -187500.02, -187500.02, -43688.29, -31955.77, 4692.15, 9821.38, -187500.02, -187500.02, 0.00, 0.00, 0.00, 0, -1
4, -187500.02, -187500.02, -43918.43, -31857.81, 4746.42, 9397.72, -187500.02, -187500.02, 0.00, 0.00, 0.00, 0, -1
5, -187500.02, -187500.02, -43755.39, -31492.47, 5093.81, 7017.84, -187500.02, -187500.02, 0.00, 0.00, 0.00, 0, -1
6, -187500.02, -187500.02, -43382.10, -31568.66, 5065.60, 7167.76, -187500.02, -187500.02, 0.00, 0.00, 0.00, 0, -1
7, -187500.02, -187500.02, -43606.06, -31922.40, 4713.49, 9551.37, -187500.02, -187500.02, 0.00, 0.00, 0.00, 0, -1
8, -187500.02, -187500.02, -43862.39, -31865.96, 4737.09, 9678.48, -187500.02, -187500.02, -0.09, 0.84, 0.49, 0, -1
9, -187500.02, -187500.02, -43794.84, -31523.36, 5064.23, 7377.15, -187500.02, -187500.02, 0.00, 0.00, 0.00, 0, -1
10, -187500.02, -187500.02, -43410.98, -31510.21, 5127.62, 6857.74, -187500.02, -187500.02, 0.00, 0.00, 0.00, 0, -1
11, -187500.02, -187500.02, -43539.39, -31889.70, 4764.90, 9259.23, -187500.02, -187500.02, 0.00, 0.00, 0.00, 0, -1
12, -187500.02, -187500.02, -43856.60, -31932.08, 4677.44, 9898.98, -187500.02, -187500.02, 0.00, 0.00, 0.00, 0, -1
13, -187500.02, -187500.02, -43854.61, -31592.38, 4978.47, 7818.89, -187500.02, -187500.02, 0.00, 0.00, 0.00, 0, -1
14, -187500.02, -187500.02, -43452.41, -31442.73, 5167.50, 6624.48, -187500.02, -187500.02, 0.00, 0.00, 0.00, 0, -1
15, -187500.02, -187500.02, -43472.27, -31833.51, 4807.73, 8867.74, -187500.02, -187500.02, 0.00, 0.00, 0.00, 0, -1
16, -187500.02, -187500.02, -43812.14, -31923.39, 4678.76, 9981.57, -187500.02, -187500.02, 0.00, 0.00, 0.00, 0, -1
17, -187500.02, -187500.02, -43857.27, -31616.16, 4948.48, 8230.25, -187500.02, -187500.02, -0.09, 0.84, 0.50, 0, -1
18, -187500.02, -187500.02, -43521.08, -31416.07, 5178.34, 6520.14, -187500.02, -187500.02, 0.00, 0.00, 0.00, 0, -1
19, -187500.02, -187500.02, -43422.06, -31777.96, 4860.01, 8395.18, -187500.02, -187500.02, 0.00, 0.00, 0.00, 0, -1
20, -187500.02, -187500.02, -43768.40, -31945.85, 4660.20, 9998.67, -187500.02, -187500.02, 0.00, 0.00, 0.00, 0, -1
21, -187500.02, -187500.02, -43898.38, -31719.52, 4844.49, 8662.89, -187500.02, -187500.02, 0.00, 0.00, 0.00, 0, -1
22, -187500.02, -187500.02, -43602.22, -31422.60, 5158.58, 6567.12, -187500.02, -187500.02, 0.00, 0.00, 0.00, 0, -1
23, -187500.02, -187500.02, -43389.74, -31716.97, 4926.03, 7920.70, -187500.02, -187500.02, 0.00, 0.00, 0.00, 0, -1
24, -187500.02, -187500.02, -43739.57, -31972.16, 4649.01, 9929.40, -187500.02, -187500.02, 0.00, 0.00, 0.00, 0, -1
25, -187500.02, -187500.02, -43918.76, -31796.54, 4776.59, 9101.25, -187500.02, -187500.02, 0.00, 0.00, 0.00, 0, -1
26, -187500.02, -187500.02, -43688.67, -31438.33, 5125.93, 6760.69, -187500.02, -187500.02, 0.00, 0.00, 0.00, 0, -1
27, -187500.02, -187500.02, -43368.89, -31624.48, 5000.71, 7499.97, -187500.02, -187500.02, -0.09, 0.84, 0.50, 0, -1
28, -187500.02, -187500.02, -43671.06, -31947.30, 4669.59, 9768.52, -187500.02, -187500.02, 0.00, 0.00, 0.00, 0, -1
29, -187500.02, -187500.02, -43900.66, -31849.49, 4720.84, 9446.85, -187500.02, -187500.02, 0.00, 0.00, 0.00, 0, -1
30, -187500.02, -187500.02, -43762.16, -31487.33, 5073.15, 7052.11, -187500.02, -187500.02, 0.00, 0.00, 0.00, 0, -1
31, -187500.02, -187500.02, -43387.62, -31568.13, 5052.63, 7085.64, -187500.02, -187500.02, 0.00, 0.00, 0.00, 0, -1
32, -187500.02, -187500.02, -43608.88, -31934.70, 4690.09, 9505.57, -187500.02, -187500.02, 0.00, 0.00, 0.00, 0, -1
33, -187500.02, -187500.02, -43881.68, -31897.46, 4685.28, 9708.84, -187500.02, -187500.02, 0.00, 0.00, 0.00, 0, -1
34, -187500.02, -187500.02, -43801.35, -31522.71, 5037.44, 7409.13, -187500.02, -187500.02, 0.00, 0.00, 0.00, 0, -1
35, -187500.02, -187500.02, -43412.59, -31488.85, 5116.65, 6755.19, -187500.02, -187500.02, 0.00, 0.00, 0.00, 0, -1
36, -187500.02, -187500.02, -43550.74, -31909.28, 4717.60, 9160.17, -187500.02, -187500.02, 0.00, 0.00, 0.00, 0, -1
37, -187500.02, -187500.02, -43865.95, -31941.58, 4651.91, 9896.17, -187500.02, -187500.02, -0.09, 0.85, 0.50, 0, -1
38, -187500.02, -187500.02, -43859.08, -31596.40, 4966.54, 7843.34, -187500.02, -187500.02, 0.00, 0.00, 0.00, 0, -1
39, -187500.02, -187500.02, -43463.95, -31443.27, 5155.85, 6555.65, -187500.02, -187500.02, 0.00, 0.00, 0.00, 0, -1
40, -187500.02, -187500.02, -43442.85, -31818.06, 4808.26, 8751.51, -187500.02, -187500.02, 0.00, 0.00, 0.00, 0, -1
41, -187500.02, -187500.02, -43773.21, -31920.75, 4669.91, 9981.06, -187500.02, -187500.02, 0.00, 0.00, 0.00, 0, -1
42, -187500.02, -187500.02, -43858.46, -31656.95, 4903.61, 8296.48, -187500.02, -187500.02, 0.00, 0.00, 0.00, 0, -1
43, -187500.02, -187500.02, -43525.30, -31420.67, 5169.42, 6485.69, -187500.02, -187500.02, 0.00, 0.00, 0.00, 0, -1
44, -187500.02, -187500.02, -43383.75, -31761.67, 4880.44, 8290.02, -187500.02, -187500.02, 0.00, 0.00, 0.00, 0, -1
45, -187500.02, -187500.02, -43756.89, -31969.36, 4642.30, 9977.06, -187500.02, -187500.02, 0.00, 0.00, 0.00, 0, -1
46, -187500.02, -187500.02, -43891.05, -31740.88, 4823.26, 8733.23, -187500.02, -187500.02, 0.00, 0.00, 0.00, 0, -1
47, -187500.02, -187500.02, -43616.63, -31440.77, 5131.16, 6567.59, -187500.02, -187500.02, -0.09, 0.85, 0.50, 0, -1
48, -187500.02, -187500.02, -43358.85, -31688.34, 4936.09, 7824.36, -187500.02, -187500.02, 0.00, 0.00, 0.00, 0, -1
49, -187500.02, -187500.02, -43693.12, -31946.14, 4658.13, 9875.98, -187500.02, -187500.02, 0.00, 0.00, 0.00, 0, -1
50, -187500.02, -187500.02, -43891.00, -31807.18, 4749.66, 9136.01, -187500.02, -187500.02, 0.00, 0.00, 0.00, 0, -1
51, -187500.02, -187500.02, -43693.43, -31464.91, 5078.63, 6769.94, -187500.02, -187500.02, 0.00, 0.00, 0.00, 0, -1
52, -187500.02, -187500.02, -43378.63, -31645.13, 4955.72, 7374.20, -187500.02, -187500.02, 0.00, 0.00, 0.00, 0, -1
53, -187500.02, -187500.02, -43652.66, -31959.75, 4640.65, 9686.75, -187500.02, -187500.02, 0.00, 0.00, 0.00, 0, -1
54, -187500.02, -187500.02, -43886.29, -31869.68, 4697.35, 9464.53, -187500.02, -187500.02, 0.00, 0.00, 0.00, 0, -1
55, -187500.02, -187500.02, -43754.84, -31497.83, 5054.22, 7072.65, -187500.02, -187500.02, 0.00, 0.00, 0.00, 0, -1
56, -187500.02, -187500.02, -43376.98, -31546.07, 5056.10, 6975.06, -187500.02, -187500.02, -0.09, 0.85, 0.50, 0, -1
57, -187500.02, -187500.02, -43581.27, -31919.56, 4689.78, 9405.59, -187500.02, -187500.02, 0.00, 0.00, 0.00, 0, -1
58, -187500.02, -187500.02, -43859.42, -31889.52, 4678.53, 9713.84, -187500.02, -187500.02, 0.00, 0.00, 0.00, 0, -1
59, -187500.02, -187500.02, -43794.64, -31521.70, 5021.30, 7460.88, -187500.02, -187500.02, 0.00, 0.00, 0.00, 0, -1
60, -187500.02, -187500.02, -43416.09, -31479.57, 5113.39, 6690.08, -187500.02, -187500.02, 0.00, 0.00, 0.00, 0, -1
61, -187500.02, -187500.02, -43516.36, -31878.30, 4740.67, 9063.18, -187500.02, -187500.02, 0.00, 0.00, 0.00, 0, -1
62, -187500.02, -187500.02, -43844.33, -31941.31, 4639.35, 9885.93, -187500.02, -187500.02, 0.00, 0.00, 0.00, 0, -1
63, -187500.02, -187500.02, -43859.82, -31619.51, 4926.91, 7916.61, -187500.02, -187500.02, 0.00, 0.00, 0.00, 0, -1
64, -187500.02, -187500.02, -43509.26, -31478.52, 5104.11, 6526.87, -187500.02, -187500.02, 0.00, 0.00, 0.00, 0, -1
65, -187500.02, -187500.02, -43468.75, -31840.42, 4778.87, 8657.41, -187500.02, -187500.02, 0.00, 0.00, 0.00, 0, -1
66, -187500.02, -187500.02, -43790.66, -31943.90, 4640.40, 9950.19, -187500.02, -187500.02, -0.09, 0.85, 0.50, 0, -1
67, -187500.02, -187500.02, -43896.50, -31699.42, 4844.45, 8359.06, -187500.02, -187500.02, 0.00, 0.00, 0.00, 0, -1
68, -187500.02, -187500.02, -43570.97, -31443.83, 5118.91, 6473.31, -187500.02, -187500.02, 0.00, 0.00, 0.00, 0, -1
69, -187500.02, -187500.02, -43425.32, -31785.90, 4825.61, 8188.18, -187500.02, -187500.02, 0.00, 0.00, 0.00, 0, -1
70, -187500.02, -187500.02, -43770.21, -31974.57, 4609.18, 9932.31, -187500.02, -187500.02, 0.00, 0.00, 0.00, 0, -1
71, -187500.02, -187500.02, -43886.57, -31732.03, 4808.11, 8779.70, -187500.02, -187500.02, 0.00, 0.00, 0.00, 0, -1
72, -187500.02, -187500.02, -43611.40, -31406.26, 5141.06, 6557.64, -187500.02, -187500.02, 0.00, 0.00, 0.00, 0, -1
73, -187500.02, -187500.02, -43362.05, -31670.92, 4923.84, 7713.59, -187500.02, -187500.02, 0.00, 0.00, 0.00, 0, -1
74, -187500.02, -187500.02, -43683.31, -31929.18, 4638.68, 9807.48, -187500.02, -187500.02, 0.00, 0.00, 0.00, 0, -1
75, -187500.02, -187500.02, -43860.51, -31773.65, 4749.08, 9161.67, -187500.02, -187500.02, 0.00, 0.00, 0.00, 0, -1
76, -187500.02, -187500.02, -43672.47, -31418.77, 5098.63, 6775.57, -187500.02, -187500.02, -0.09, 0.85, 0.50, 0, -1
77, -187500.02, -187500.02, -43335.07, -31569.24, 4999.84, 7242.10, -187500.02, -187500.02, 0.00, 0.00, 0.00, 0, -1
78, -187500.02, -187500.02, -43610.02, -31906.76, 4650.41, 9592.68, -187500.02, -187500.02, 0.00, 0.00, 0.00, 0, -1
79, -187500.02, -187500.02, -43844.24, -31809.48, 4702.90, 9460.24, -187500.02, -187500.02, 0.00, 0.00, 0.00, 0, -1
80, -187500.02, -187500.02, -43729.71, -31451.88, 5048.99, 7096.79, -187500.02, -187500.02, 0.00, 0.00, 0.00, 0, -1
81, -187500.02, -187500.02, -43368.02, -31507.89, 5054.27, 6885.81, -187500.02, -187500.02, 0.00, 0.00, 0.00, 0, -1
82, -187500.02, -187500.02, -43553.54, -31890.62, 4685.80, 9309.68, -187500.02, -187500.02, 0.00, 0.00, 0.00, 0, -1
83, -187500.02, -187500.02, -43834.72, -31880.94, 4658.80, 9721.80, -187500.02, -187500.02, 0.00, 0.00, 0.00, 0, -1
84, -187500.02, -187500.02, -43802.02, -31542.42, 4972.73, 7515.75, -187500.02, -187500.02, 0.00, 0.00, 0.00, 0, -1
85, -187500.02, -187500.02, -43415.58, -31463.23, 5099.48, 6625.30, -187500.02, -187500.02, 0.00, 0.00, 0.00, 0, -1
86, -187500.02, -187500.02, -43481.23, -31851.21, 4740.69, 8963.63, -187500.02, -187500.02, -0.09, 0.84, 0.50, 0, -1
87, -187500.02, -187500.02, -43808.39, -31911.32, 4638.84, 9876.70, -187500.02, -187500.02, 0.00, 0.00, 0.00, 0, -1
88, -187500.02, -187500.02, -43837.34, -31592.49, 4921.70, 7956.06, -187500.02, -187500.02, 0.00, 0.00, 0.00, 0, -1
89, -187500.02, -187500.02, -43495.78, -31435.49, 5102.90, 6471.79, -187500.02, -187500.02, 0.00, 0.00, 0.00, 0, -1
90, -187500.02, -187500.02, -43444.86, -31804.88, 4768.63, 8544.83, -187500.02, -187500.02, 0.00, 0.00, 0.00, 0, -1
91, -187500.02, -187500.02, -43797.77, -31942.27, 4594.85, 9943.80, -187500.02, -187500.02, 0.00, 0.00, 0.00, 0, -1
92, -187500.02, -187500.02, -43880.30, -31664.69, 4832.54, 8413.22, -187500.02, -187500.02, 0.00, 0.00, 0.00, 0, -1
93, -187500.02, -187500.02, -43566.16, -31406.26, 5107.53, 6455.59, -187500.02, -187500.02, 0.00, 0.00, 0.00, 0, -1
94, -187500.02, -187500.02, -43368.02, -31704.88, 4859.34, 8073.16, -187500.02, -187500.02, 0.00, 0.00, 0.00, 0, -1
95, -187500.02, -187500.02, -43724.79, -31936.35, 4603.68, 9912.28, -187500.02, -187500.02, -0.09, 0.84, 0.49, 0, -1
96, -187500.02, -187500.02, -43888.07, -31737.24, 4764.81, 8843.94, -187500.02, -187500.02, 0.00, 0.00, 0.00, 0, -1
97, -187500.02, -187500.02, -43636.30, -31406.93, 5094.99, 6582.57, -187500.02, -187500.02, 0.00, 0.00, 0.00, 0, -1
98, -187500.02, -187500.02, -43359.45, -31644.66, 4909.02, 7613.58, -187500.02, -187500.02, 0.00, 0.00, 0.00, 0, -1
99, -187500.02, -187500.02, -43693.61, -31942.27, 4590.11, 9789.68, -187500.02, -187500.02, 0.00, 0.00, 0.00, 0, -1
100, -187500.02, -187500.02, -43891.05, -31804.34, 4689.69, 9244.97, -187500.02, -187500.02, 0.00, 0.00, 0.00, 0, -1
101, -187500.02, -187500.02, -43707.29, -31439.38, 5050.06, 6837.31, -187500.02, -187500.02, 0.00, 0.00, 0.00, 0, -1
102, -187500.02, -187500.02, -43332.92, -31552.26, 4992.91, 7186.94, -187500.02, -187500.02, 0.00, 0.00, 0.00, 0, -1
103, -187500.02, -187500.02, -43597.99, -31906.33, 4634.05, 9567.40, -187500.02, -187500.02, 0.00, 0.00, 0.00, 0, -1
104, -187500.02, -187500.02, -43857.00, -31854.34, 4638.79, 9547.57, -187500.02, -187500.02, 0.00, 0.00, 0.00, 0, -1
105, -187500.02, -187500.02, -43776.98, -31504.60, 4959.36, 7187.00, -187500.02, -187500.02, -0.09, 0.84, 0.49, 0, -1
106, -187500.02, -187500.02, -43368.77, -31493.58, 5025.92, 6820.55, -187500.02, -187500.02, 0.00, 0.00, 0.00, 0, -1
107, -187500.02, -187500.02, -43513.55, -31866.03, 4678.47, 9250.47, -187500.02, -187500.02, 0.00, 0.00, 0.00, 0, -1
108, -187500.02, -187500.02, -43823.32, -31880.27, 4619.19, 9751.98, -187500.02, -187500.02, 0.00, 0.00, 0.00, 0, -1
109, -187500.02, -187500.02, -43795.45, -31518.22, 4945.75, 7572.50, -187500.02, -187500.02, 0.00, 0.00, 0.00, 0, -1
110, -187500.02, -187500.02, -43409.86, -31426.87, 5085.60, 6550.87, -187500.02, -187500.02, 0.00, 0.00, 0.00, 0, -1
111, -187500.02, -187500.02, -43464.06, -31825.60, 4713.78, 8867.58, -187500.02, -187500.02, 0.00, 0.00, 0.00, 0, -1
112, -187500.02, -187500.02, -43804.32, -31909.84, 4590.89, 9890.04, -187500.02, -187500.02, 0.00, 0.00, 0.00, 0, -1
113, -187500.02, -187500.02, -43832.73, -31575.21, 4888.19, 8014.87, -187500.02, -187500.02, 0.00, 0.00, 0.00, 0, -1
114, -187500.02, -187500.02, -43476.69, -31392.82, 5102.79, 6431.80, -187500.02, -187500.02, 0.00, 0.00, 0.00, 0, -1
115, -187500.02, -187500.02, -43408.14, -31769.70, 4771.52, 8430.65, -187500.02, -187500.02, -0.09, 0.85, 0.49, 0, -1
116, -187500.02, -187500.02, -43782.39, -31947.26, 4565.14, 9935.08, -187500.02, -187500.02, 0.00, 0.00, 0.00, 0, -1
117, -187500.02, -187500.02, -43900.88, -31694.55, 4774.89, 8481.95, -187500.02, -187500.02, 0.00, 0.00, 0.00, 0, -1
118, -187500.02, -187500.02, -43574.93, -31393.05, 5091.17, 6445.19, -187500.02, -187500.02, 0.00, 0.00, 0.00, 0, -1
119, -187500.02, -187500.02, -43371.77, -31699.85, 4833.30, 7989.76, -187500.02, -187500.02, 0.00, 0.00, 0.00, 0, -1
120, -187500.02, -187500.02, -43715.27, -31920.01, 4583.76, 9892.14, -187500.02, -187500.02, 0.00, 0.00, 0.00, 0, -1
121, -187500.02, -187500.02, -43888.83, -31746.14, 4715.01, 8926.93, -187500.02, -187500.02, 0.00, 0.00, 0.00, 0, -1
122, -187500.02, -187500.02, -43627.34, -31386.14, 5083.75, 6603.11, -187500.02, -187500.02, 0.00, 0.00, 0.00, 0, -1
123, -187500.02, -187500.02, -43336.32, -31631.94, 4899.06, 7530.79, -187500.02, -187500.02, 0.00, 0.00, 0.00, 0, -1
124, -187500.02, -187500.02, -43680.43, -31957.61, 4554.64, 9761.88, -187500.02, -187500.02, 0.00, 0.00, 0.00, 0, -1
125, -187500.02, -187500.02, -43876.14, -31806.64, 4665.19, 9293.72, -187500.02, -187500.02, -0.10, 0.85, 0.49, 0, -1
126, -187500.02, -187500.02, -43704.59, -31428.88, 5034.24, 6873.18, -187500.02, -187500.02, 0.00, 0.00, 0.00, 0, -1
127, -187500.02, -187500.02, -43347.45, -31545.17, 4971.47, 7096.75, -187500.02, -187500.02, 0.00, 0.00, 0.00, 0, -1
128, -187500.02, -187500.02, -43597.57, -31905.66, 4605.46, 9521.42, -187500.02, -187500.02, 0.00, 0.00, 0.00, 0, -1
129, -187500.02, -187500.02, -43856.22, -31838.25, 4627.37, 9577.77, -187500.02, -187500.02, 0.00, 0.00, 0.00, 0, -1
130, -187500.02, -187500.02, -43768.43, -31471.63, 4969.53, 7230.43, -187500.02, -187500.02, 0.00, 0.00, 0.00, 0, -1
131, -187500.02, -187500.02, -43381.89, -31472.08, 5020.20, 6759.17, -187500.02, -187500.02, 0.00, 0.00, 0.00, 0, -1
132, -187500.02, -187500.02, -43515.34, -31861.43, 4647.98, 9195.35, -187500.02, -187500.02, 0.00, 0.00, 0.00, 0, -1
133, -187500.02, -187500.02, -43831.86, -31891.96, 4580.34, 9805.08, -187500.02, -187500.02, 0.00, 0.00, 0.00, 0, -1
134, -187500.02, -187500.02, -43814.27, -31539.05, 4905.34, 7666.83, -187500.02, -187500.02, -0.10, 0.85, 0.50, 0, -1
135, -187500.02, -187500.02, -43435.23, -31431.02, 5051.92, 6532.52, -187500.02, -187500.02, 0.00, 0.00, 0.00, 0, -1
136, -187500.02, -187500.02, -43435.85, -31793.54, 4714.68, 8816.11, -187500.02, -187500.02, 0.00, 0.00, 0.00, 0, -1
137, -187500.02, -187500.02, -43790.22, -31906.82, 4569.32, 9917.74, -187500.02, -187500.02, 0.00, 0.00, 0.00, 0, -1
138, -187500.02, -187500.02, -43854.25, -31609.68, 4832.60, 8123.63, -187500.02, -187500.02, 0.00, 0.00, 0.00, 0, -1
139, -187500.02, -187500.02, -43480.94, -31370.02, 5094.30, 6415.67, -187500.02, -187500.02, 0.00, 0.00, 0.00, 0, -1
140, -187500.02, -187500.02, -43374.92, -31732.84, 4775.29, 8353.81, -187500.02, -187500.02, 0.00, 0.00, 0.00, 0, -1
141, -187500.02, -187500.02, -43717.91, -31892.00, 4587.43, 9920.93, -187500.02, -187500.02, 0.00, 0.00, 0.00, 0, -1
142, -187500.02, -187500.02, -43838.86, -31651.01, 4785.69, 8526.14, -187500.02, -187500.02, 0.00, 0.00, 0.00, 0, -1
143, -187500.02, -187500.02, -43547.72, -31374.49, 5081.51, 6448.46, -187500.02, -187500.02, 0.00, 0.00, 0.00, 0, -1
144, -187500.02, -187500.02, -43316.11, -31647.19, 4866.33, 7859.68, -187500.02, -187500.02, -0.09, 0.85, 0.50, 0, -1
145, -187500.02, -187500.02, -43663.01, -31903.63, 4583.65, 9871.16, -187500.02, -187500.02, 0.00, 0.00, 0.00, 0, -1
146, -187500.02, -187500.02, -43856.22, -31733.40, 4706.83, 8984.95, -187500.02, -187500.02, 0.00, 0.00, 0.00, 0, -1
147, -187500.02, -187500.02, -43628.86, -31378.29, 5061.91, 6635.12, -187500.02, -187500.02, 0.00, 0.00, 0.00, 0, -1
148, -187500.02, -187500.02, -43299.53, -31566.07, 4940.76, 7444.05, -187500.02, -187500.02, 0.00, 0.00, 0.00, 0, -1
149, -187500.02, -187500.02, -43608.72, -31879.11, 4614.05, 9722.25, -187500.02, -187500.02, 0.00, 0.00, 0.00, 0, -1
150, -187500.02, -187500.02, -43824.35, -31756.33, 4694.22, 9347.41, -187500.02, -187500.02, 0.00, 0.00, 0.00, 0, -1
151, -187500.02, -187500.02, -43695.71, -31425.68, 5020.63, 6923.65, -187500.02, -187500.02, 0.00, 0.00, 0.00, 0, -1
152, -187500.02, -187500.02, -43347.54, -31537.35, 4958.53, 7033.15, -187500.02, -187500.02, 0.00, 0.00, 0.00, 0, -1
153, -187500.02, -187500.02, -43572.46, -31896.81, 4594.71, 9482.84, -187500.02, -187500.02, 0.00, 0.00, 0.00, 0, -1
154, -187500.02, -187500.02, -43829.82, -31829.08, 4614.54, 9628.37, -187500.02, -187500.02, -0.09, 0.84, 0.50, 0, -1
155, -187500.02, -187500.02, -43758.55, -31467.52, 4952.83, 7285.33, -187500.02, -187500.02, 0.00, 0.00, 0.00, 0, -1
156, -187500.02, -187500.02, -43374.14, -31450.83, 5022.91, 6681.56, -187500.02, -187500.02, 0.00, 0.00, 0.00, 0, -1
157, -187500.02, -187500.02, -43512.83, -31861.70, 4633.40, 9132.27, -187500.02, -187500.02, 0.00, 0.00, 0.00, 0, -1
158, -187500.02, -187500.02, -43834.43, -31899.60, 4558.86, 9824.69, -187500.02, -187500.02, 0.00, 0.00, 0.00, 0, -1
159, -187500.02, -187500.02, -43825.49, -31544.05, 4880.32, 7706.46, -187500.02, -187500.02, 0.00, 0.00, 0.00, 0, -1
160, -187500.02, -187500.02, -43412.99, -31384.37, 5077.89, 6460.48, -187500.02, -187500.02, 0.00, 0.00, 0.00, 0, -1
161, -187500.02, -187500.02, -43411.76, -31780.63, 4715.50, 8719.08, -187500.02, -187500.02, 0.00, 0.00, 0.00, 0, -1
162, -187500.02, -187500.02, -43786.89, -31910.38, 4550.99, 9938.10, -187500.02, -187500.02, 0.00, 0.00, 0.00, 0, -1
163, -187500.02, -187500.02, -43844.06, -31591.71, 4829.90, 8172.20, -187500.02, -187500.02, 0.00, 0.00, 0.00, 0, -1
164, -187500.02, -187500.02, -43488.54, -31357.98, 5085.54, 6390.48, -187500.02, -187500.02, -0.09, 0.84, 0.50, 0, -1
165, -187500.02, -187500.02, -43358.80, -31709.97, 4774.69, 8272.42, -187500.02, -187500.02, 0.00, 0.00, 0.00, 0, -1
166, -187500.02, -187500.02, -43751.15, -31923.19, 4525.13, 9956.03, -187500.02, -187500.02, 0.00, 0.00, 0.00, 0, -1
167, -187500.02, -187500.02, -43885.61, -31675.91, 4724.94, 8636.58, -187500.02, -187500.02, 0.00, 0.00, 0.00, 0, -1
168, -187500.02, -187500.02, -43581.56, -31359.00, 5050.80, 6453.48, -187500.02, -187500.02, 0.00, 0.00, 0.00, 0, -1
169, -187500.02, -187500.02, -43342.78, -31654.05, 4805.71, 7805.65, -187500.02, -187500.02, 0.00, 0.00, 0.00, 0, -1
170, -187500.02, -187500.02, -43694.24, -31917.87, 4518.27, 9867.92, -187500.02, -187500.02, 0.00, 0.00, 0.00, 0, -1
171, -187500.02, -187500.02, -43869.88, -31727.23, 4677.01, 9038.06, -187500.02, -187500.02, 0.00, 0.00, 0.00, 0, -1
172, -187500.02, -187500.02, -43651.14, -31375.81, 5029.32, 6638.74, -187500.02, -187500.02, 0.00, 0.00, 0.00, 0, -1
173, -187500.02, -187500.02, -43317.59, -31559.03, 4897.07, 7342.75, -187500.02, -187500.02, -0.09, 0.84, 0.50, 0, -1
174, -187500.02, -187500.02, -43635.19, -31911.85, 4532.89, 9693.39, -187500.02, -187500.02, 0.00, 0.00, 0.00, 0, -1
175, -187500.02, -187500.02, -43867.04, -31789.90, 4609.78, 9402.10, -187500.02, -187500.02, 0.00, 0.00, 0.00, 0, -1
176, -187500.02, -187500.02, -43701.21, -31394.46, 4998.70, 6941.69, -187500.02, -187500.02, 0.00, 0.00, 0.00, 0, -1
177, -187500.02, -187500.02, -43317.52, -31481.98, 4973.08, 6930.52, -187500.02, -187500.02, 0.00, 0.00, 0.00, 0, -1
178, -187500.02, -187500.02, -43544.48, -31875.44, 4581.46, 9417.75, -187500.02, -187500.02, 0.00, 0.00, 0.00, 0, -1
179, -187500.02, -187500.02, -43841.80, -31847.14, 4560.63, 9662.10, -187500.02, -187500.02, 0.00, 0.00, 0.00, 0, -1
180, -187500.02, -187500.02, -43777.07, -31470.72, 4902.34, 7325.16, -187500.02, -187500.02, 0.00, 0.00, 0.00, 0, -1
181, -187500.02, -187500.02, -43352.64, -31396.71, 5016.56, 6607.06, -187500.02, -187500.02, 0.00, 0.00, 0.00, 0, -1
182, -187500.02, -187500.02, -43469.29, -31830.16, 4605.93, 9066.96, -187500.02, -187500.02, 0.00, 0.00, 0.00, 0, -1
183, -187500.02, -187500.02, -43826.38, -31894.02, 4507.54, 9866.53, -187500.02, -187500.02, -0.10, 0.85, 0.49, 0, -1
184, -187500.02, -187500.02, -43821.96, -31523.54, 4849.73, 7779.39, -187500.02, -187500.02, 0.00, 0.00, 0.00, 0, -1
185, -187500.02, -187500.02, -43435.56, -31382.52, 5033.81, 6427.71, -187500.02, -187500.02, 0.00, 0.00, 0.00, 0, -1
186, -187500.02, -187500.02, -43423.07, -31789.88, 4659.11, 8671.94, -187500.02, -187500.02, 0.00, 0.00, 0.00, 0, -1
187, -187500.02, -187500.02, -43793.57, -31920.77, 4488.41, 9965.10, -187500.02, -187500.02, 0.00, 0.00, 0.00, 0, -1
188, -187500.02, -187500.02, -43860.36, -31602.39, 4767.11, 8256.89, -187500.02, -187500.02, 0.00, 0.00, 0.00, 0, -1
189, -187500.02, -187500.02, -43497.72, -31340.52, 5054.27, 6351.36, -187500.02, -187500.02, 0.00, 0.00, 0.00, 0, -1
190, -187500.02, -187500.02, -43367.75, -31729.06, 4715.55, 8206.73, -187500.02, -187500.02, 0.00, 0.00, 0.00, 0, -1
191, -187500.02, -187500.02, -43749.20, -31935.30, 4481.14, 9968.10, -187500.02, -187500.02, 0.00, 0.00, 0.00, 0, -1
192, -187500.02, -187500.02, -43882.55, -31674.23, 4702.29, 8708.89, -187500.02, -187500.02, 0.00, 0.00, 0.00, 0, -1
193, -187500.02, -187500.02, -43583.15, -31290.88, 5096.73, 6303.30, -187500.02, -187500.02, -0.10, 0.85, 0.49, 0, -1
194, -187500.02, -187500.02, -43265.91, -31551.34, 4890.32, 7466.11, -187500.02, -187500.02, 0.00, 0.00, 0.00, 0, -1
195, -187500.02, -187500.02, -43630.47, -31953.25, 4474.89, 9899.90, -187500.02, -187500.02, 0.00, 0.00, 0.00, 0, -1
196, -187500.02, -187500.02, -43948.82, -31850.38, 4536.69, 9357.98, -187500.02, -187500.02, 0.00, 0.00, 0.00, 0, -1
197, -187500.02, -187500.02, -43753.49, -31197.65, 5168.30, 6207.97, -187500.02, -187500.02, 0.00, 0.00, 0.00, 0, -1
198, -187500.02, -187500.02, -43065.24, -31119.37, 5308.23, 6019.28, -187500.02, -187500.02, 0.00, 0.00, 0.00, 0, -1
199, -187500.02, -187500.02, -43320.50, -31855.24, 4588.66, 9359.64, -187500.02, -187500.02, 0.00, 0.00, 0.00, 0, -1
200, -187500.02, -187500.02, -43919.30, -32021.67, 4374.21, 10037.72, -187500.02, -187500.02, 0.00, 0.00, 0.00, 0, -1
201, -187500.02, -187500.02, -43913.60, -31295.41, 5059.85, 6767.59, -187500.02, -187500.02, 0.00, 0.00, 0.00, 0, -1
202, -187500.02, -187500.02, -43114.21, -30956.38, 5454.07, 5375.66, -187500.02, -187500.02, -0.10, 0.85, 0.49, 0, -1
203, -187500.02, -187500.02, -43173.04, -31768.67, 4677.50, 8859.54, -187500.02, -187500.02, 0.00, 0.00, 0.00, 0, -1
204, -187500.02, -187500.02, -43877.61, -32140.76, 4260.94, 10472.31, -187500.02, -187500.02, 0.00, 0.00, 0.00, 0, -1
205, -187500.02, -187500.02, -44035.21, -31459.68, 4888.08, 7555.98, -187500.02, -187500.02, 0.00, 0.00, 0.00, 0, -1
206, -187500.02, -187500.02, -43245.19, -30876.05, 5509.95, 5131.92, -187500.02, -187500.02, 0.00, 0.00, 0.00, 0, -1
207, -187500.02, -187500.02, -43040.00, -31626.06, 4805.83, 8314.02, -187500.02, -187500.02, 0.00, 0.00, 0.00, 0, -1
208, -187500.02, -187500.02, -43787.87, -32212.42, 4180.02, 10791.67, -187500.02, -187500.02, 0.00, 0.00, 0.00, 0, -1
209, -187500.02, -187500.02, -44176.19, -31592.42, 4735.46, 8222.27, -187500.02, -187500.02, 0.00, 0.00, 0.00, 0, -1
210, -187500.02, -187500.02, -43288.64, -30496.54, 5860.49, 4108.25, -187500.02, -187500.02, 0.00, 0.00, 0.00, 0, -1
211, -187500.02, -187500.02, -42656.07, -31279.86, 5169.69, 6965.94, -187500.02, -187500.02, 0.00, 0.00, 0.00, 0, -1
212, -187500.02, -187500.02, -43602.53, -32280.32, 4143.03, 10841.98, -187500.02, -187500.02, -0.10, 0.85, 0.50, 0, -1
213, -187500.02, -187500.02, -44223.39, -31857.65, 4487.96, 9220.99, -187500.02, -187500.02, 0.00, 0.00, 0.00, 0, -1
214, -187500.02, -187500.02, -43541.71, -30655.95, 5685.19, 4724.13, -187500.02, -187500.02, 0.00, 0.00, 0.00, 0, -1
215, -187500.02, -187500.02, -42673.21, -31100.19, 5340.30, 6346.73, -187500.02, -187500.02, 0.00, 0.00, 0.00, 0, -1
216, -187500.02, -187500.02, -43419.63, -32182.02, 4252.40, 10633.48, -187500.02, -187500.02, 0.00, 0.00, 0.00, 0, -1
217, -187500.02, -187500.02, -44176.25, -32037.85, 4319.83, 10079.56, -187500.02, -187500.02, 0.00, 0.00, 0.00, 0, -1
218, -187500.02, -187500.02, -43777.50, -30883.63, 5443.16, 5593.28, -187500.02, -187500.02, 0.00, 0.00, 0.00, 0, -1
219, -187500.02, -187500.02, -42762.48, -30974.76, 5440.73, 5938.10, -187500.02, -187500.02, 0.00, 0.00, 0.00, 0, -1
220, -187500.02, -187500.02, -43290.12, -32064.34, 4365.81, 10247.34, -187500.02, -187500.02, 0.00, 0.00, 0.00, 0, -1
221, -187500.02, -187500.02, -44121.45, -32182.73, 4185.72, 10610.48, -187500.02, -187500.02, 0.00, 0.00, 0.00, 0, -1
222, -187500.02, -187500.02, -43975.89, -31124.13, 5196.42, 6372.17, -187500.02, -187500.02, -0.10, 0.85, 0.50, 0, -1
223, -187500.02, -187500.02, -42897.04, -30880.63, 5516.68, 5446.61, -187500.02, -187500.02, 0.00, 0.00, 0.00, 0, -1
224, -187500.02, -187500.02, -43156.30, -31949.78, 4479.87, 9775.51, -187500.02, -187500.02, 0.00, 0.00, 0.00, 0, -1
225, -187500.02, -187500.02, -44032.87, -32272.86, 4103.18, 11063.89, -187500.02, -187500.02, 0.00, 0.00, 0.00, 0, -1
226, -187500.02, -187500.02, -44105.78, -31360.70, 4958.69, 7302.63, -187500.02, -187500.02, 0.00, 0.00, 0.00, 0, -1
227, -187500.02, -187500.02, -43075.41, -30810.89, 5572.83, 5192.80, -187500.02, -187500.02, 0.00, 0.00, 0.00, 0, -1
228, -187500.02, -187500.02, -43042.93, -31848.89, 4592.64, 9238.60, -187500.02, -187500.02, 0.00, 0.00, 0.00, 0, -1
229, -187500.02, -187500.02, -43983.56, -32403.79, 3987.93, 11454.51, -187500.02, -187500.02, 0.00, 0.00, 0.00, 0, -1
230, -187500.02, -187500.02, -44231.15, -31557.89, 4765.19, 8120.46, -187500.02, -187500.02, 0.00, 0.00, 0.00, 0, -1
231, -187500.02, -187500.02, -43233.05, -30722.52, 5641.42, 4904.84, -187500.02, -187500.02, 0.00, 0.00, 0.00, 0, -1
232, -187500.02, -187500.02, -42883.59, -31666.92, 4775.03, 8519.05, -187500.02, -187500.02, -0.10, 0.85, 0.50, 0, -1
233, -187500.02, -187500.02, -43869.14, -32491.75, 3909.50, 11736.90, -187500.02, -187500.02, 0.00, 0.00, 0.00, 0, -1
234, -187500.02, -187500.02, -44361.82, -31807.69, 4509.64, 9097.20, -187500.02, -187500.02, 0.00, 0.00, 0.00, 0, -1
235, -187500.02, -187500.02, -43446.45, -30670.41, 5660.09, 4761.32, -187500.02, -187500.02, 0.00, 0.00, 0.00, 0, -1
236, -187500.02, -187500.02, -42756.49, -31423.71, 5009.99, 7487.01, -187500.02, -187500.02, 0.00, 0.00, 0.00, 0, -1
237, -187500.02, -187500.02, -43681.21, -32431.91, 3992.87, 11436.36, -187500.02, -187500.02, 0.00, 0.00, 0.00, 0, -1
238, -187500.02, -187500.02, -44342.71, -32020.13, 4323.23, 9822.05, -187500.02, -187500.02, 0.00, 0.00, 0.00, 0, -1
239, -187500.02, -187500.02, -43671.24, -30825.63, 5501.32, 5250.45, -187500.02, -187500.02, 0.00, 0.00, 0.00, 0, -1
240, -187500.02, -187500.02, -42800.73, -31291.50, 5136.90, 6812.19, -187500.02, -187500.02, 0.00, 0.00, 0.00, 0, -1
241, -187500.02, -187500.02, -43588.74, -32409.04, 4011.20, 11163.98, -187500.02, -187500.02, -0.10, 0.85, 0.50, 0, -1
242, -187500.02, -187500.02, -44340.72, -32137.74, 4199.92, 10418.21, -187500.02, -187500.02, 0.00, 0.00, 0.00, 0, -1
243, -187500.02, -187500.02, -43825.18, -30596.05, 5704.86, 4777.95, -187500.02, -187500.02, 0.00, 0.00, 0.00, 0, -1
244, -187500.02, -187500.02, -42500.90, -30802.51, 5614.71, 5064.59, -187500.02, -187500.02, 0.00, 0.00, 0.00, 0, -1
245, -187500.02, -187500.02, -43241.71, -32358.64, 4077.56, 10780.11, -187500.02, -187500.02, 0.00, 0.00, 0.00, 0, -1
246, -187500.02, -187500.02, -44356.30, -32473.57, 3879.55, 11496.22, -187500.02, -187500.02, 0.00, 0.00, 0.00, 0, -1
247, -187500.02, -187500.02, -44123.95, -31092.42, 5213.37, 6415.35, -187500.02, -187500.02, 0.00, 0.00, 0.00, 0, -1
248, -187500.02, -187500.02, -42831.89, -30815.32, 5583.26, 5138.35, -187500.02, -187500.02, 0.00, 0.00, 0.00, 0, -1
249, -187500.02, -187500.02, -43160.84, -32146.55, 4286.98, 10086.54, -187500.02, -187500.02, 0.00, 0.00, 0.00, 0, -1
250, -187500.02, -187500.02, -44215.37, -32510.66, 3850.49, 11637.17, -187500.02, -187500.02, 0.00, 0.00, 0.00, 0, -1
251, -187500.02, -187500.02, -44258.24, -31331.54, 4970.40, 7224.89, -187500.02, -187500.02, -0.10, 0.84, 0.50, 0, -1
252, -187500.02, -187500.02, -42988.91, -30681.77, 5694.11, 4676.48, -187500.02, -187500.02, 0.00, 0.00, 0.00, 0, -1
253, -187500.02, -187500.02, -42978.58, -31948.20, 4495.34, 9315.49, -187500.02, -187500.02, 0.00, 0.00, 0.00, 0, -1
254, -187500.02, -187500.02, -44102.52, -32605.27, 3784.37, 11928.50, -187500.02, -187500.02, 0.00, 0.00, 0.00, 0, -1
255, -187500.02, -187500.02, -44400.09, -31563.99, 4742.48, 8106.96, -187500.02, -187500.02, 0.00, 0.00, 0.00, 0, -1
0, -187500.02, -187500.02, -43183.70, -30547.37, 5802.00, 4176.00, -187500.02, -187500.02, 0.00, 0.00, 0.00, 0, -1
