%OpenBCI Raw EEG Data
%
%Sample Rate = 250.0 Hz
%First Column = SampleIndex
%Other Columns = EEG data in microvolts followed by Accel Data (in G) interleaved with Aux Data
0, -179771.44, -177699.64, -183262.94, -183264.05, -178307.66, -182101.72, -183172.45, -182984.61, 0.17, 0.46, 0.00, 0, -1
1, -177379.95, -176165.95, -183168.84, -183193.70, -177424.47, -180102.22, -182956.91, -182133.11, 0.00, 0.00, 0.00, 0, -1
2, -177659.75, -178147.88, -179310.00, -182948.78, -180376.45, -173206.08, -179091.41, -177288.52, 0.00, 0.00, 0.00, 0, -1
3, -180414.17, -180120.52, -178622.33, -182999.36, -181778.06, -174680.38, -179107.31, -178191.16, 0.00, 0.00, 0.00, 0, -1
4, -180156.27, -178104.08, -183096.19, -183245.42, -178800.61, -181440.70, -183004.14, -182700.98, 0.00, 0.00, 0.00, 0, -1
5, -177766.70, -176211.83, -183284.41, -183230.03, -177258.58, -180942.27, -183151.80, -182651.55, 0.00, 0.00, 0.00, 0, -1
6, -177425.81, -177698.63, -180322.00, -182981.67, -179753.44, -173980.30, -179950.45, -178045.41, 0.34, 0.93, 0.01, 0, -1
7, -180062.00, -180095.78, -177846.28, -182957.42, -181887.41, -173380.05, -178407.48, -177404.25, 0.00, 0.00, 0.00, 0, -1
8, -180321.69, -178356.61, -182793.28, -183217.73, -179234.14, -180458.77, -182721.08, -182288.13, 0.00, 0.00, 0.00, 0, -1
9, -178164.44, -176299.73, -183333.61, -183256.09, -177164.19, -181334.13, -183251.17, -182978.08, 0.00, 0.00, 0.00, 0, -1
10, -177417.50, -177408.31, -181202.61, -183019.50, -179179.38, -174615.00, -180776.45, -178894.86, 0.00, 0.00, 0.00, 0, -1
11, -179731.38, -180062.31, -177308.17, -182924.02, -181884.20, -172029.44, -177905.02, -176719.61, 0.00, 0.00, 0.00, 0, -1
12, -180437.53, -178640.44, -182311.94, -183179.67, -179723.16, -178979.83, -182289.67, -181683.75, 0.00, 0.00, 0.00, 0, -1
13, -178555.89, -176410.09, -183353.91, -183272.92, -177190.47, -181269.59, -183295.23, -183155.78, 0.00, 0.00, 0.00, 0, -1
14, -177459.91, -177064.44, -182011.19, -183064.94, -178606.61, -175220.02, -181580.56, -179774.42, 0.00, 0.00, 0.00, 0, -1
15, -179373.81, -180004.77, -177315.13, -182904.75, -181726.83, -170828.66, -177758.48, -176252.89, 0.00, 0.00, 0.00, 0, -1
16, -180404.23, -179133.84, -181645.78, -183134.11, -180266.23, -177083.72, -181695.69, -180861.23, 0.37, 0.93, 0.04, 0, -1
17, -178700.78, -176593.39, -183360.55, -183279.88, -177348.38, -180864.25, -183303.30, -183215.25, 0.00, 0.00, 0.00, 0, -1
18, -177227.73, -176735.58, -182638.33, -183109.27, -178082.38, -175841.03, -182258.86, -180616.91, 0.00, 0.00, 0.00, 0, -1
19, -178842.20, -179805.97, -177989.19, -182898.86, -181404.05, -169966.53, -178052.14, -176102.97, 0.00, 0.00, 0.00, 0, -1
20, -180489.38, -179699.33, -180882.63, -183082.11, -180793.23, -174838.41, -180975.11, -179872.73, 0.00, 0.00, 0.00, 0, -1
21, -179091.38, -176985.98, -183347.80, -183276.86, -177597.20, -179922.02, -183279.63, -183166.08, 0.00, 0.00, 0.00, 0, -1
22, -177371.48, -176504.70, -183013.03, -183153.89, -177589.44, -176066.63, -182727.98, -181448.53, 0.00, 0.00, 0.00, 0, -1
23, -178531.16, -179435.94, -178942.41, -182905.30, -180887.98, -169081.03, -178651.27, -176326.77, 0.00, 0.00, 0.00, 0, -1
24, -180600.23, -180136.55, -180094.08, -183024.53, -181208.02, -172242.98, -180177.23, -178812.42, 0.00, 0.00, 0.00, 0, -1
25, -179608.20, -177366.39, -183289.11, -183259.84, -177947.34, -178532.36, -183202.67, -182984.69, 0.00, 0.00, 0.00, 0, -1
26, -177693.17, -176348.34, -183208.80, -183188.83, -177243.31, -176188.33, -183015.36, -182071.22, 0.37, 0.91, 0.02, 0, -1
27, -178285.00, -178993.14, -180083.95, -182927.31, -180292.66, -168751.33, -179445.88, -176749.56, 0.00, 0.00, 0.00, 0, -1
28, -180591.56, -180538.56, -179492.22, -182971.19, -181546.70, -169933.09, -179408.17, -177608.09, 0.00, 0.00, 0.00, 0, -1
29, -179987.13, -177849.45, -183160.56, -183232.64, -178422.02, -177025.20, -183045.17, -182592.38, 0.00, 0.00, 0.00, 0, -1
30, -177998.38, -176344.70, -183292.23, -183218.30, -177065.02, -176255.97, -183171.80, -182490.86, 0.00, 0.00, 0.00, 0, -1
31, -178155.58, -178584.89, -181138.73, -182957.94, -179703.86, -168705.47, -180195.72, -177333.77, 0.00, 0.00, 0.00, 0, -1
32, -180614.83, -180851.63, -179165.72, -182922.20, -181746.36, -167701.80, -178571.14, -176479.28, 0.00, 0.00, 0.00, 0, -1
33, -180618.16, -178417.42, -182935.75, -183192.41, -178972.84, -174900.42, -182739.67, -181943.75, 0.00, 0.00, 0.00, 0, -1
34, -178642.20, -176362.28, -183321.41, -183237.88, -176968.81, -175918.69, -183251.69, -182818.91, 0.00, 0.00, 0.00, 0, -1
35, -178212.55, -178060.67, -181998.11, -182996.00, -179027.55, -168880.66, -181110.75, -178107.39, 0.00, 0.00, 0.00, 0, -1
36, -180491.22, -180966.11, -179200.09, -182886.92, -181703.45, -165914.95, -178210.14, -175541.28, 0.38, 0.89, -0.00, 0, -1
37, -181058.31, -179009.91, -182616.81, -183147.11, -179497.11, -172850.95, -182317.86, -181084.38, 0.00, 0.00, 0.00, 0, -1
38, -179209.00, -176506.89, -183332.84, -183248.30, -176990.86, -175488.81, -183277.77, -182999.42, 0.00, 0.00, 0.00, 0, -1
39, -178276.84, -177531.05, -182598.69, -183038.77, -178359.25, -169751.08, -181888.50, -178958.59, 0.00, 0.00, 0.00, 0, -1
40, -180318.11, -180886.88, -179616.22, -182864.13, -181455.67, -165004.73, -178206.98, -174894.28, 0.00, 0.00, 0.00, 0, -1
41, -181526.09, -179788.31, -182215.48, -183089.69, -180078.56, -170993.67, -181728.73, -179900.16, 0.00, 0.00, 0.00, 0, -1
42, -179896.06, -176909.48, -183333.81, -183248.92, -177190.34, -175017.78, -183276.41, -183031.48, 0.00, 0.00, 0.00, 0, -1
43, -178585.09, -177278.31, -182950.83, -183081.55, -177840.08, -170187.36, -182458.52, -179855.41, 0.00, 0.00, 0.00, 0, -1
44, -180249.64, -180814.05, -180201.02, -182858.83, -181063.94, -163918.09, -178529.59, -174694.56, 0.00, 0.00, 0.00, 0, -1
45, -182049.86, -180799.14, -181763.78, -183031.50, -180592.95, -168373.77, -181002.39, -178597.05, 0.38, 0.90, -0.01, 0, -1
46, -180716.53, -177603.17, -183319.80, -183238.52, -177480.72, -173615.83, -183245.14, -182878.23, 0.00, 0.00, 0.00, 0, -1
47, -179075.78, -177191.14, -183148.59, -183121.59, -177393.83, -170010.41, -182840.08, -180562.80, 0.00, 0.00, 0.00, 0, -1
48, -180280.38, -180613.08, -181049.77, -182867.81, -180545.56, -162710.05, -179197.64, -174602.30, 0.00, 0.00, 0.00, 0, -1
49, -182352.72, -181495.67, -181453.17, -182971.91, -180983.36, -165332.31, -180271.91, -177025.72, 0.00, 0.00, 0.00, 0, -1
50, -181432.48, -178236.00, -183275.84, -183212.27, -177836.48, -171655.53, -183158.48, -182443.89, 0.00, 0.00, 0.00, 0, -1
51, -179505.94, -177002.25, -183228.53, -183150.80, -177058.11, -169649.27, -183056.47, -181273.00, 0.00, 0.00, 0.00, 0, -1
52, -180211.77, -180128.08, -181789.66, -182888.06, -179958.31, -161972.09, -179965.88, -175037.48, 0.00, 0.00, 0.00, 0, -1
53, -182362.20, -181853.70, -181281.78, -182915.81, -181297.66, -162460.41, -179576.66, -175677.19, 0.00, 0.00, 0.00, 0, -1
54, -181952.88, -178793.44, -183196.97, -183178.97, -178291.23, -169363.00, -182995.36, -181799.67, 0.00, 0.00, 0.00, 0, -1
55, -179983.92, -176910.34, -183259.80, -183172.83, -176891.30, -168759.73, -183169.59, -181846.66, 0.37, 0.90, -0.02, 0, -1
56, -180225.06, -179589.11, -182404.06, -182915.58, -179365.02, -161175.42, -180799.92, -175738.13, 0.00, 0.00, 0.00, 0, -1
57, -182297.89, -182048.52, -181393.83, -182866.33, -181473.61, -159508.50, -179063.22, -174428.67, 0.00, 0.00, 0.00, 0, -1
58, -182402.36, -179462.39, -183081.66, -183134.25, -178837.23, -166658.44, -182724.36, -180713.98, 0.00, 0.00, 0.00, 0, -1
59, -180540.05, -176925.27, -183277.80, -183189.55, -176828.47, -167867.81, -183217.17, -182014.03, 0.00, 0.00, 0.00, 0, -1
60, -180273.20, -178957.89, -182805.80, -182954.98, -178728.77, -161039.98, -181555.56, -176189.78, 0.00, 0.00, 0.00, 0, -1
61, -182200.80, -182032.25, -181753.53, -182834.30, -181452.97, -157323.78, -178775.70, -173080.86, 0.00, 0.00, 0.00, 0, -1
62, -182662.56, -180079.86, -182962.80, -183084.55, -179379.41, -164009.70, -182321.34, -179067.89, 0.00, 0.00, 0.00, 0, -1
63, -181064.19, -177075.78, -183282.88, -183193.66, -176884.25, -166638.44, -183225.63, -181718.02, 0.00, 0.00, 0.00, 0, -1
64, -180277.83, -178314.44, -183016.33, -182995.14, -178124.78, -160669.05, -182191.13, -176861.09, 0.00, 0.00, 0.00, 0, -1
65, -182029.73, -181841.97, -182172.97, -182812.88, -181241.44, -155120.30, -178865.88, -172355.95, 0.37, 0.90, -0.01, 0, -1
66, -182783.69, -180742.64, -182866.23, -183023.97, -179965.89, -160633.28, -181787.67, -177477.45, 0.00, 0.00, 0.00, 0, -1
67, -181601.70, -177385.53, -183271.72, -183182.33, -177076.58, -164610.95, -183211.52, -181415.48, 0.00, 0.00, 0.00, 0, -1
68, -180403.88, -177785.36, -183107.08, -183028.73, -177631.75, -159692.08, -182636.67, -177751.27, 0.00, 0.00, 0.00, 0, -1
69, -181859.98, -181486.48, -182548.08, -182807.61, -180876.64, -152762.08, -179298.06, -172428.77, 0.00, 0.00, 0.00, 0, -1
70, -182808.11, -181373.09, -182833.03, -182964.56, -180539.22, -156566.25, -181173.06, -176278.53, 0.00, 0.00, 0.00, 0, -1
71, -182111.34, -177887.41, -183255.38, -183166.03, -177414.95, -161788.31, -183177.44, -181387.13, 0.00, 0.00, 0.00, 0, -1
72, -180572.63, -177311.28, -183152.92, -183064.63, -177211.98, -158456.19, -182916.64, -179074.33, 0.00, 0.00, 0.00, 0, -1
73, -181661.16, -180936.84, -182819.47, -182822.09, -180332.53, -151049.00, -179958.25, -173042.23, 0.00, 0.00, 0.00, 0, -1
74, -182757.73, -181790.17, -182883.44, -182907.31, -180944.89, -153125.17, -180550.59, -175165.78, 0.00, 0.00, 0.00, 0, -1
75, -182417.50, -178458.95, -183228.00, -183139.84, -177829.88, -159322.92, -183096.14, -181006.56, 0.37, 0.90, -0.00, 0, -1
76, -180666.70, -176961.70, -183186.64, -183096.36, -176900.64, -157599.03, -183073.95, -180083.84, 0.00, 0.00, 0.00, 0, -1
77, -181296.64, -180154.47, -182928.64, -182850.45, -179629.50, -150039.50, -180740.73, -173996.39, 0.00, 0.00, 0.00, 0, -1
78, -182664.73, -182095.44, -182935.59, -182862.23, -181195.77, -149689.77, -180032.64, -174215.77, 0.00, 0.00, 0.00, 0, -1
79, -182704.84, -179294.27, -183192.05, -183103.73, -178399.53, -156058.58, -182938.47, -180386.94, 0.00, 0.00, 0.00, 0, -1
80, -181033.17, -176961.50, -183202.69, -183111.08, -176765.95, -155739.84, -183137.94, -180870.75, 0.00, 0.00, 0.00, 0, -1
81, -180978.30, -179305.52, -182964.02, -182880.45, -178847.25, -148463.23, -181587.73, -175178.48, 0.00, 0.00, 0.00, 0, -1
82, -182522.91, -182178.63, -182894.03, -182817.64, -181196.31, -145789.00, -179856.97, -173376.70, 0.00, 0.00, 0.00, 0, -1
83, -182860.98, -180381.80, -183139.50, -183052.38, -179079.06, -151853.75, -182693.00, -179138.14, 0.00, 0.00, 0.00, 0, -1
84, -181535.97, -177329.39, -183208.09, -183115.70, -176829.89, -153121.67, -183151.11, -180887.44, 0.37, 0.90, -0.01, 0, -1
85, -180322.95, -178107.02, -183008.83, -182921.13, -177845.34, -146897.30, -182423.17, -176210.42, 0.00, 0.00, 0.00, 0, -1
86, -182101.69, -181744.00, -182869.72, -182790.28, -180666.19, -142073.11, -180349.89, -172765.55, 0.00, 0.00, 0.00, 0, -1
87, -182870.17, -181785.59, -183075.52, -182989.52, -179954.67, -146643.69, -182385.52, -177540.81, 0.00, 0.00, 0.00, 0, -1
88, -182024.06, -178590.34, -183198.47, -183105.78, -177389.34, -149058.73, -183141.34, -180758.11, 0.00, 0.00, 0.00, 0, -1
89, -180078.98, -177747.53, -183044.11, -182953.78, -177369.92, -143767.22, -182804.67, -177433.38, 0.00, 0.00, 0.00, 0, -1
90, -181661.27, -181212.69, -182859.09, -182777.00, -180096.52, -137445.20, -181031.20, -172968.03, 0.00, 0.00, 0.00, 0, -1
91, -182815.63, -182255.84, -183019.31, -182933.64, -180285.72, -140583.73, -182167.61, -176537.06, 0.00, 0.00, 0.00, 0, -1
92, -182322.03, -179567.58, -183182.39, -183089.03, -177711.27, -144135.27, -183122.53, -180622.78, 0.00, 0.00, 0.00, 0, -1
93, -180391.58, -178004.02, -183071.00, -182978.28, -177138.27, -140140.09, -182953.83, -178339.20, 0.00, 0.00, 0.00, 0, -1
94, -181601.48, -181022.88, -182859.14, -182774.41, -179766.38, -132943.83, -181527.30, -173243.38, 0.37, 0.91, -0.03, 0, -1
95, -182758.78, -182396.58, -182964.36, -182878.44, -180525.56, -134490.20, -181974.08, -175656.72, 0.00, 0.00, 0.00, 0, -1
96, -182501.34, -180118.48, -183158.44, -183064.47, -177841.11, -138870.47, -183089.23, -180577.69, 0.00, 0.00, 0.00, 0, -1
97, -180732.22, -178181.23, -183088.92, -182994.16, -176845.72, -136164.16, -183015.94, -179408.59, 0.00, 0.00, 0.00, 0, -1
98, -181614.05, -180845.19, -182864.27, -182777.19, -179380.39, -128874.68, -181896.08, -174125.83, 0.00, 0.00, 0.00, 0, -1
99, -182706.11, -182495.13, -182912.00, -182826.33, -180804.66, -129099.49, -181770.66, -175236.95, 0.00, 0.00, 0.00, 0, -1
100, -182655.44, -180741.97, -183124.97, -183031.05, -178197.47, -134385.64, -183031.02, -180803.95, 0.00, 0.00, 0.00, 0, -1
101, -180916.11, -178237.41, -183107.45, -183011.31, -176653.86, -133306.97, -183049.38, -180914.81, 0.00, 0.00, 0.00, 0, -1
102, -181263.55, -180265.36, -182888.27, -182798.45, -178710.70, -126484.02, -182342.66, -175750.64, 0.00, 0.00, 0.00, 0, -1
103, -182613.08, -182473.89, -182866.64, -182780.78, -180886.88, -125079.11, -181754.17, -175129.91, 0.00, 0.00, 0.00, 0, -1
104, -182782.25, -181523.63, -183085.61, -182992.31, -178816.28, -130666.08, -182945.61, -180579.45, 0.38, 0.92, -0.02, 0, -1
105, -181239.03, -178579.39, -183117.70, -183020.72, -176694.58, -131308.38, -183061.09, -181899.16, 0.00, 0.00, 0.00, 0, -1
106, -180627.75, -179388.52, -182923.14, -182830.67, -177875.44, -125569.41, -182700.02, -177450.53, 0.00, 0.00, 0.00, 0, -1
107, -182405.47, -182239.89, -182840.89, -182754.27, -180553.67, -122649.13, -182033.52, -175263.23, 0.00, 0.00, 0.00, 0, -1
108, -182821.19, -182147.53, -183043.25, -182950.91, -179427.44, -127857.80, -182858.13, -180175.64, 0.00, 0.00, 0.00, 0, -1
109, -181645.17, -179227.14, -183121.17, -183023.98, -176948.67, -129992.94, -183067.27, -182628.41, 0.00, 0.00, 0.00, 0, -1
110, -180063.70, -178626.02, -182960.31, -182865.81, -177217.31, -125476.52, -182865.36, -179485.00, 0.00, 0.00, 0.00, 0, -1
111, -181975.73, -181745.83, -182830.69, -182742.89, -179934.63, -121315.23, -182343.20, -176156.97, 0.00, 0.00, 0.00, 0, -1
112, -182803.77, -182476.03, -182998.20, -182907.05, -179872.64, -125414.34, -182790.77, -179919.58, 0.00, 0.00, 0.00, 0, -1
113, -182009.41, -180007.08, -183115.30, -183018.45, -177322.66, -128616.09, -183062.61, -182836.69, 0.00, 0.00, 0.00, 0, -1
114, -179913.03, -178331.05, -182994.03, -182898.27, -176885.94, -125211.27, -182924.38, -181027.58, 0.37, 0.92, -0.02, 0, -1
115, -181635.45, -181336.34, -182832.81, -182744.28, -179559.88, -120166.15, -182391.13, -177125.19, 0.00, 0.00, 0.00, 0, -1
116, -182764.78, -182500.44, -182964.00, -182873.83, -180052.84, -123245.16, -182678.16, -179708.17, 0.00, 0.00, 0.00, 0, -1
117, -182108.50, -180275.33, -183112.55, -183015.98, -177419.98, -127295.04, -183059.89, -182846.20, 0.00, 0.00, 0.00, 0, -1
118, -179985.41, -178289.20, -183025.67, -182929.11, -176701.00, -124943.09, -182964.88, -181873.25, 0.00, 0.00, 0.00, 0, -1
119, -181505.30, -181101.16, -182841.23, -182752.02, -179406.52, -119591.51, -182348.70, -177871.98, 0.00, 0.00, 0.00, 0, -1
120, -182719.67, -182491.58, -182925.58, -182836.61, -180363.86, -121644.58, -182450.44, -179403.72, 0.00, 0.00, 0.00, 0, -1
121, -182064.09, -180437.45, -183098.00, -183001.92, -177584.45, -126503.36, -183040.58, -182768.48, 0.00, 0.00, 0.00, 0, -1
122, -179724.61, -178163.27, -183050.47, -182953.31, -176499.81, -125264.67, -182995.42, -182478.83, 0.00, 0.00, 0.00, 0, -1
123, -181187.64, -180771.05, -182859.81, -182769.84, -179163.95, -119801.57, -182380.13, -178894.66, 0.36, 0.91, -0.02, 0, -1
124, -182665.64, -182496.56, -182894.59, -182806.97, -180770.86, -120521.95, -182189.22, -179258.06, 0.00, 0.00, 0.00, 0, -1
125, -181933.30, -180690.95, -183083.13, -182987.78, -177950.80, -125886.48, -183004.59, -182661.16, 0.00, 0.00, 0.00, 0, -1
126, -179312.75, -178058.11, -183071.16, -182973.67, -176358.92, -125755.09, -183018.41, -182829.86, 0.00, 0.00, 0.00, 0, -1
127, -180739.42, -180339.17, -182885.44, -182794.50, -178810.50, -120524.09, -182453.66, -179939.34, 0.00, 0.00, 0.00, 0, -1
128, -182593.34, -182455.58, -182868.31, -182781.86, -181069.02, -119914.65, -181897.73, -179159.23, 0.00, 0.00, 0.00, 0, -1
129, -181821.42, -180842.08, -183061.94, -182967.95, -178355.31, -125456.23, -182928.33, -182486.77, 0.00, 0.00, 0.00, 0, -1
130, -178880.73, -177838.72, -183088.83, -182991.28, -176226.22, -126455.59, -183036.75, -182995.48, 0.00, 0.00, 0.00, 0, -1
131, -180065.00, -179675.05, -182919.83, -182828.02, -178313.14, -121769.73, -182587.27, -180846.33, 0.00, 0.00, 0.00, 0, -1
132, -182478.66, -182359.77, -182854.34, -182769.00, -181236.52, -119872.42, -181682.50, -179174.06, 0.00, 0.00, 0.00, 0, -1
133, -181865.88, -181098.28, -183036.39, -182944.27, -178936.91, -125129.45, -182795.73, -182260.34, 0.36, 0.90, -0.03, 0, -1
134, -178687.17, -177774.86, -183099.81, -183002.70, -176253.05, -127178.56, -183047.97, -183059.11, 0.00, 0.00, 0.00, 0, -1
135, -179324.39, -178927.73, -182954.09, -182861.27, -177796.86, -123244.85, -182719.30, -181407.25, 0.00, 0.00, 0.00, 0, -1
136, -182294.89, -182175.83, -182845.28, -182760.58, -181270.67, -120243.53, -181561.89, -178765.00, 0.00, 0.00, 0.00, 0, -1
137, -181969.02, -181369.98, -183005.14, -182914.95, -179594.27, -124972.42, -182594.17, -181603.16, 0.00, 0.00, 0.00, 0, -1
138, -178670.83, -177837.48, -183104.08, -183007.45, -176381.44, -128045.41, -183052.17, -183037.44, 0.00, 0.00, 0.00, 0, -1
139, -178655.44, -178255.92, -182986.89, -182893.05, -177316.58, -124996.78, -182837.91, -181327.72, 0.00, 0.00, 0.00, 0, -1
140, -182023.69, -181887.36, -182845.98, -182761.25, -181104.83, -121254.81, -181588.98, -177795.92, 0.00, 0.00, 0.00, 0, -1
141, -182150.47, -181690.95, -182972.05, -182884.00, -180330.72, -125138.90, -182324.98, -180372.41, 0.00, 0.00, 0.00, 0, -1
142, -178831.77, -178040.44, -183100.30, -183004.59, -176696.75, -129144.38, -183046.30, -182934.77, 0.00, 0.00, 0.00, 0, -1
143, -177854.55, -177466.72, -183018.14, -182923.63, -176842.23, -127137.74, -182923.70, -181761.31, 0.38, 0.89, -0.02, 0, -1
144, -181523.97, -181363.39, -182858.25, -182773.25, -180685.94, -122884.84, -181709.78, -177981.22, 0.00, 0.00, 0.00, 0, -1
145, -182313.20, -181979.47, -182938.72, -182853.17, -181000.38, -125488.32, -181982.31, -179694.09, 0.00, 0.00, 0.00, 0, -1
146, -179122.20, -178346.44, -183093.39, -182998.95, -177185.77, -130135.90, -183026.06, -182809.70, 0.00, 0.00, 0.00, 0, -1
147, -177283.13, -176798.20, -183045.11, -182950.23, -176513.55, -129027.02, -182980.77, -182410.09, 0.00, 0.00, 0.00, 0, -1
148, -180880.53, -180642.45, -182878.44, -182792.89, -180134.73, -124519.53, -181958.30, -179018.27, 0.00, 0.00, 0.00, 0, -1
149, -182448.39, -182194.14, -182912.80, -182829.84, -181526.25, -125672.73, -181684.03, -179474.41, 0.00, 0.00, 0.00, 0, -1
150, -179681.06, -178862.83, -183084.72, -182992.09, -177887.72, -130745.67, -182977.61, -182670.31, 0.00, 0.00, 0.00, 0, -1
151, -176947.83, -176302.22, -183076.14, -182981.16, -176349.77, -130746.05, -183022.16, -182758.30, 0.00, 0.00, 0.00, 0, -1
152, -179941.64, -179584.09, -182901.38, -182815.16, -179343.50, -126160.17, -182164.83, -179518.66, 0.00, 0.00, 0.00, 0, -1
153, -182323.63, -182091.30, -182865.34, -182785.83, -181466.47, -125531.05, -181223.11, -178309.36, 0.38, 0.89, -0.03, 0, -1
154, -179870.56, -179163.36, -183052.13, -182962.08, -178327.95, -130858.30, -182826.94, -182061.30, 0.00, 0.00, 0.00, 0, -1
155, -177026.91, -176351.39, -183109.95, -183015.09, -176511.09, -132421.19, -183057.78, -182945.17, 0.00, 0.00, 0.00, 0, -1
156, -179263.06, -178723.80, -182958.48, -182870.36, -178838.73, -128352.79, -182495.28, -180151.36, 0.00, 0.00, 0.00, 0, -1
157, -182242.50, -181984.98, -182853.41, -182775.61, -181460.44, -125956.34, -181095.17, -177383.11, 0.00, 0.00, 0.00, 0, -1
158, -180374.69, -179689.91, -183014.84, -182927.81, -178945.53, -130720.69, -182606.02, -180898.27, 0.00, 0.00, 0.00, 0, -1
159, -177072.41, -176317.34, -183114.25, -183020.02, -176568.47, -133356.47, -183061.16, -182671.28, 0.00, 0.00, 0.00, 0, -1
160, -178222.66, -177610.55, -182993.61, -182903.56, -178105.73, -130149.64, -182748.61, -179316.89, 0.00, 0.00, 0.00, 0, -1
161, -181876.09, -181580.64, -182849.72, -182771.58, -181170.89, -126656.70, -181274.58, -175364.14, 0.00, 0.00, 0.00, 0, -1
162, -181176.34, -180542.95, -182975.67, -182891.31, -179671.67, -130432.84, -182342.59, -178320.63, 0.37, 0.91, -0.03, 0, -1
163, -177574.59, -176742.61, -183105.39, -183012.14, -176859.38, -133950.02, -183048.64, -181411.73, 0.00, 0.00, 0.00, 0, -1
164, -177228.30, -176556.02, -183022.67, -182931.34, -177438.67, -131811.05, -182904.72, -179374.36, 0.00, 0.00, 0.00, 0, -1
165, -180970.05, -180613.47, -182856.28, -182777.00, -180498.75, -127696.43, -181665.89, -175273.92, 0.00, 0.00, 0.00, 0, -1
166, -181717.34, -181157.69, -182934.11, -182853.16, -180163.56, -130116.70, -182105.31, -177279.88, 0.00, 0.00, 0.00, 0, -1
167, -178226.45, -177342.73, -183086.80, -182995.31, -177265.91, -134177.20, -183022.81, -181155.61, 0.00, 0.00, 0.00, 0, -1
168, -176614.03, -175872.59, -183045.06, -182953.02, -176977.28, -133058.17, -182972.95, -180352.91, 0.00, 0.00, 0.00, 0, -1
169, -179788.28, -179372.16, -182874.91, -182793.77, -179752.48, -128743.74, -181976.20, -176308.47, 0.00, 0.00, 0.00, 0, -1
170, -181976.88, -181479.31, -182901.95, -182823.77, -180447.53, -129762.11, -181846.25, -177097.00, 0.00, 0.00, 0.00, 0, -1
171, -179010.28, -178091.97, -183065.27, -182975.70, -177733.20, -134154.52, -182972.84, -181264.39, 0.00, 0.00, 0.00, 0, -1
172, -176412.83, -175585.06, -183062.70, -182970.45, -176709.13, -134096.83, -183005.38, -181550.52, 0.36, 0.90, -0.02, 0, -1
173, -178648.56, -178142.33, -182901.03, -182817.89, -179029.22, -129918.62, -182260.28, -177689.59, 0.00, 0.00, 0.00, 0, -1
174, -181876.72, -181413.59, -182874.45, -182798.27, -180547.58, -129598.85, -181620.30, -177080.59, 0.00, 0.00, 0.00, 0, -1
175, -179646.33, -178725.38, -183039.05, -182951.30, -178127.95, -133980.84, -182878.56, -181156.97, 0.00, 0.00, 0.00, 0, -1
176, -176463.50, -175571.09, -183070.81, -182978.50, -176564.63, -134806.31, -183017.91, -182313.19, 0.00, 0.00, 0.00, 0, -1
177, -177813.98, -177187.80, -182921.31, -182836.06, -178427.44, -130978.00, -182453.48, -178818.78, 0.00, 0.00, 0.00, 0, -1
178, -181668.53, -181239.31, -182850.16, -182775.70, -180653.63, -129440.11, -181345.27, -176949.95, 0.00, 0.00, 0.00, 0, -1
179, -180668.81, -179766.89, -183002.23, -182917.33, -178803.44, -133564.91, -182690.39, -180548.69, 0.00, 0.00, 0.00, 0, -1
180, -176916.70, -175956.97, -183072.14, -182980.22, -176658.77, -135377.72, -183020.41, -182607.64, 0.00, 0.00, 0.00, 0, -1
181, -176792.22, -176053.22, -182952.17, -182864.33, -177689.23, -132246.33, -182682.33, -180133.39, 0.00, 0.00, 0.00, 0, -1
182, -180929.59, -180440.78, -182843.91, -182768.00, -180326.63, -129637.41, -181364.73, -177532.84, 0.35, 0.92, -0.01, 0, -1
183, -181244.45, -180397.75, -182970.38, -182887.69, -179256.27, -133070.88, -182444.86, -180514.45, 0.00, 0.00, 0.00, 0, -1
184, -177426.28, -176402.78, -183068.14, -182976.52, -176777.84, -135575.27, -183017.38, -182858.98, 0.00, 0.00, 0.00, 0, -1
185, -176433.59, -175546.08, -182975.89, -182886.75, -177271.81, -133069.36, -182783.70, -181538.94, 0.00, 0.00, 0.00, 0, -1
186, -180373.14, -179758.00, -182806.63, -182760.84, -180128.14, -129666.55, -181236.86, -178485.61, 0.00, 0.00, 0.00, 0, -1
187, -181511.02, -180716.69, -182912.70, -182856.38, -179648.20, -132349.80, -182043.31, -180514.72, 0.00, 0.00, 0.00, 0, -1
188, -177789.25, -176759.36, -183063.98, -182973.05, -176890.52, -135468.05, -183006.17, -182883.78, 0.00, 0.00, 0.00, 0, -1
189, -176276.63, -175302.20, -182997.25, -182907.16, -176955.83, -133532.69, -182855.06, -182250.70, 0.00, 0.00, 0.00, 0, -1
190, -180000.25, -179242.09, -182617.59, -182761.17, -180002.22, -129478.51, -181140.52, -179359.69, 0.00, 0.00, 0.00, 0, -1
191, -181791.02, -181063.08, -182621.08, -182821.03, -180189.13, -131178.50, -181462.94, -180561.78, 0.00, 0.00, 0.00, 0, -1
192, -178213.77, -177184.84, -183047.06, -182960.58, -177160.61, -134892.86, -182957.45, -182874.64, 0.34, 0.92, -0.02, 0, -1
193, -175970.16, -174935.11, -183016.69, -182925.23, -176603.78, -133896.13, -182925.16, -182797.28, 0.00, 0.00, 0.00, 0, -1
194, -179193.53, -178248.55, -182595.02, -182774.25, -179535.52, -129702.67, -181338.75, -180669.66, 0.00, 0.00, 0.00, 0, -1
195, -181800.61, -181004.22, -182332.19, -182792.98, -180482.55, -130386.20, -180935.75, -180899.97, 0.00, 0.00, 0.00, 0, -1
196, -178568.13, -177537.75, -183009.39, -182945.73, -177448.45, -134429.44, -182861.06, -182885.78, 0.00, 0.00, 0.00, 0, -1
197, -175815.59, -174751.00, -183038.66, -182946.39, -176331.39, -134252.58, -182973.09, -183001.69, 0.00, 0.00, 0.00, 0, -1
198, -178493.22, -177374.75, -182573.77, -182792.27, -179050.63, -130046.73, -181563.06, -181837.16, 0.00, 0.00, 0.00, 0, -1
199, -181813.83, -180938.81, -181856.09, -182765.16, -180813.80, -129557.16, -180360.00, -181351.55, 0.00, 0.00, 0.00, 0, -1
200, -179047.34, -178003.39, -182905.75, -182922.61, -177885.25, -133795.19, -182666.94, -182869.36, 0.00, 0.00, 0.00, 0, -1
201, -175916.06, -174852.44, -183048.13, -182955.42, -176234.58, -134482.59, -182994.17, -183039.75, 0.35, 0.91, -0.02, 0, -1
202, -178024.64, -176788.13, -182577.80, -182810.27, -178652.39, -130540.82, -181791.72, -182432.16, 0.00, 0.00, 0.00, 0, -1
203, -181728.55, -180738.23, -181234.36, -182741.84, -181082.86, -128948.70, -179798.05, -181708.14, 0.00, 0.00, 0.00, 0, -1
204, -179392.88, -178343.53, -182683.81, -182895.91, -178349.84, -133148.11, -182340.27, -182832.72, 0.00, 0.00, 0.00, 0, -1
205, -175980.84, -174948.34, -183053.50, -182960.47, -176167.19, -134693.03, -183003.16, -183048.13, 0.00, 0.00, 0.00, 0, -1
206, -177681.77, -176372.33, -182615.52, -182831.83, -178255.78, -131134.38, -182017.98, -182752.53, 0.00, 0.00, 0.00, 0, -1
207, -181678.02, -180621.42, -180493.69, -182724.75, -181332.41, -128519.28, -179263.67, -182061.44, 0.00, 0.00, 0.00, 0, -1
208, -179963.97, -178900.09, -182244.73, -182865.09, -179036.08, -132373.59, -181799.16, -182793.70, 0.00, 0.00, 0.00, 0, -1
209, -176141.11, -175122.47, -183057.41, -182964.42, -176222.73, -134824.17, -183003.27, -183053.42, 0.00, 0.00, 0.00, 0, -1
210, -177195.61, -175858.80, -182748.89, -182858.70, -177754.83, -131840.59, -182308.17, -182934.58, 0.00, 0.00, 0.00, 0, -1
211, -181429.78, -180238.11, -180181.19, -182716.16, -181281.56, -128289.42, -179107.20, -182679.17, 0.35, 0.92, -0.02, 0, -1
212, -180487.69, -179406.52, -181607.16, -182830.94, -179719.95, -131461.11, -181133.33, -182875.38, 0.00, 0.00, 0.00, 0, -1
213, -176464.09, -175434.19, -183049.53, -182960.80, -176429.17, -134674.42, -182978.48, -183051.27, 0.00, 0.00, 0.00, 0, -1
214, -176690.25, -175355.13, -182879.23, -182884.25, -177247.16, -132458.69, -182566.06, -182973.05, 0.00, 0.00, 0.00, 0, -1
215, -181017.86, -179671.05, -180277.56, -182716.88, -180994.56, -128215.63, -179242.64, -182799.00, 0.00, 0.00, 0.00, 0, -1
216, -181119.89, -180013.81, -180829.34, -182792.27, -180437.00, -130374.50, -180311.05, -182878.48, 0.00, 0.00, 0.00, 0, -1
217, -177039.47, -175968.14, -183009.19, -182949.67, -176821.05, -134298.17, -182898.64, -183040.75, 0.00, 0.00, 0.00, 0, -1
218, -176413.91, -175106.27, -182964.91, -182907.16, -176881.39, -132920.13, -182757.06, -182997.72, 0.00, 0.00, 0.00, 0, -1
219, -180510.88, -179022.72, -180559.91, -182726.95, -180555.63, -128313.41, -179599.81, -182813.48, 0.00, 0.00, 0.00, 0, -1
220, -181623.36, -180504.19, -179895.55, -182753.44, -181046.44, -129247.52, -179408.02, -182841.67, 0.00, 0.00, 0.00, 0, -1
221, -177705.42, -176574.30, -182896.61, -182933.27, -177331.97, -133710.67, -182722.75, -183025.06, 0.36, 0.92, -0.03, 0, -1
222, -176203.42, -174944.38, -183014.42, -182928.38, -176588.55, -133304.23, -182884.78, -183020.34, 0.00, 0.00, 0.00, 0, -1
223, -179904.48, -178318.64, -180995.50, -182743.50, -179997.50, -128605.61, -180114.67, -182832.39, 0.00, 0.00, 0.00, 0, -1
224, -181892.98, -180757.98, -178967.75, -182717.22, -181466.14, -128224.51, -178575.81, -182806.91, 0.00, 0.00, 0.00, 0, -1
225, -178382.11, -177189.89, -182646.69, -182907.83, -177922.30, -132969.23, -182414.02, -183000.36, 0.00, 0.00, 0.00, 0, -1
226, -176146.09, -174925.69, -183036.69, -182942.63, -176433.22, -133582.61, -182957.47, -183035.86, 0.00, 0.00, 0.00, 0, -1
227, -179228.31, -177557.05, -181534.17, -182768.89, -179366.91, -129130.96, -180718.70, -182859.80, 0.00, 0.00, 0.00, 0, -1
228, -182018.61, -180770.94, -178245.25, -182686.48, -181705.58, -127418.22, -177877.75, -182777.41, 0.00, 0.00, 0.00, 0, -1
229, -179155.28, -177870.14, -182196.30, -182873.20, -178628.08, -132122.14, -181897.63, -182966.72, 0.00, 0.00, 0.00, 0, -1
230, -176189.88, -174988.53, -183047.80, -182952.84, -176406.05, -133841.33, -182991.09, -183047.58, 0.36, 0.91, -0.01, 0, -1
231, -178498.09, -176796.08, -181996.22, -182799.42, -178723.31, -129858.13, -181352.84, -182892.72, 0.00, 0.00, 0.00, 0, -1
232, -181912.75, -180457.89, -177672.13, -182670.98, -181708.52, -126909.67, -177532.09, -182764.08, 0.00, 0.00, 0.00, 0, -1
233, -179806.08, -178423.84, -181433.33, -182838.41, -179320.08, -131156.30, -181203.66, -182933.39, 0.00, 0.00, 0.00, 0, -1
234, -176334.72, -175124.73, -183053.98, -182959.92, -176499.45, -133880.98, -182993.06, -183056.06, 0.00, 0.00, 0.00, 0, -1
235, -177655.02, -175971.92, -182417.66, -182835.23, -178033.94, -130623.57, -181929.06, -182930.58, 0.00, 0.00, 0.00, 0, -1
236, -181547.95, -179814.06, -177672.27, -182661.83, -181456.13, -126665.79, -177600.16, -182756.95, 0.00, 0.00, 0.00, 0, -1
237, -180400.61, -178886.95, -180378.44, -182791.44, -179984.28, -130179.15, -180339.95, -182888.14, 0.00, 0.00, 0.00, 0, -1
238, -176602.61, -175363.27, -183032.80, -182953.48, -176738.64, -133948.95, -182946.34, -183051.33, 0.00, 0.00, 0.00, 0, -1
239, -176912.11, -175301.94, -182704.88, -182868.58, -177452.77, -131674.28, -182373.02, -182966.25, 0.00, 0.00, 0.00, 0, -1
240, -180915.27, -178952.44, -177975.72, -182667.92, -180989.84, -127098.48, -178014.34, -182765.47, 0.36, 0.93, -0.01, 0, -1
241, -180950.59, -179254.13, -178986.53, -182746.45, -180583.88, -129523.86, -179331.09, -182845.13, 0.00, 0.00, 0.00, 0, -1
242, -177051.48, -175759.34, -182939.45, -182937.63, -177130.61, -134148.66, -182819.63, -183037.13, 0.00, 0.00, 0.00, 0, -1
243, -176334.20, -174801.78, -182891.20, -182896.86, -176994.34, -132929.94, -182675.03, -182996.72, 0.00, 0.00, 0.00, 0, -1
244, -179989.58, -177916.84, -178705.44, -182682.25, -180319.34, -127963.13, -178729.28, -182782.25, 0.00, 0.00, 0.00, 0, -1
245, -181295.70, -179361.25, -177513.91, -182701.03, -180983.98, -128866.20, -178363.61, -182802.16, 0.00, 0.00, 0.00, 0, -1
246, -177596.30, -176220.86, -182693.91, -182913.59, -177624.25, -133907.03, -182575.06, -183015.16, 0.00, 0.00, 0.00, 0, -1
247, -175951.77, -174484.78, -182989.23, -182918.94, -176689.39, -133732.31, -182860.17, -183020.92, 0.00, 0.00, 0.00, 0, -1
248, -178810.34, -176774.20, -179680.80, -182708.27, -179508.86, -128721.21, -179649.06, -182810.58, 0.00, 0.00, 0.00, 0, -1
249, -181344.70, -179185.45, -176207.78, -182663.02, -181117.88, -128044.83, -177626.09, -182766.63, 0.00, 0.00, 0.00, 0, -1
250, -178279.98, -176786.00, -182196.02, -182881.44, -178195.16, -133207.55, -182169.92, -182985.17, 0.37, 0.93, -0.01, 0, -1
251, -175943.25, -174503.64, -183027.59, -182933.95, -176591.88, -134065.41, -182952.02, -183038.30, 0.00, 0.00, 0.00, 0, -1
252, -177802.44, -175866.41, -180657.70, -182739.41, -178766.47, -129304.81, -180538.47, -182844.34, 0.00, 0.00, 0.00, 0, -1
253, -181007.97, -178794.59, -175272.31, -182632.45, -181042.89, -127073.10, -177131.20, -182738.98, 0.00, 0.00, 0.00, 0, -1
254, -178929.70, -177309.09, -181327.84, -182837.78, -178776.33, -131945.41, -181524.77, -182944.28, 0.00, 0.00, 0.00, 0, -1
255, -176031.20, -174615.75, -183037.67, -182941.22, -176620.14, -133980.59, -182982.27, -183048.16, 0.00, 0.00, 0.00, 0, -1
0, -176867.67, -175042.58, -181448.70, -182772.39, -178074.47, -129787.92, -181321.80, -182880.16, 0.00, 0.00, 0.00, 0, -1
1, -180232.77, -178100.80, -174750.22, -182611.69, -180740.02, -126217.08, -177014.67, -182721.03, 0.00, 0.00, 0.00, 0, -1
2, -179228.69, -177543.77, -180005.95, -182791.33, -179234.86, -130464.69, -180749.98, -182900.66, 0.00, 0.00, 0.00, 0, -1
3, -176154.34, -174755.77, -183028.22, -182942.20, -176749.86, -133507.44, -182968.80, -183051.55, 0.00, 0.00, 0.00, 0, -1
4, -176108.78, -174349.02, -182057.55, -182813.48, -177483.19, -130090.95, -181967.09, -182924.08, 0.37, 0.92, -0.01, 0, -1
5, -179316.55, -177253.42, -174788.22, -182606.34, -180299.92, -125411.48, -177313.20, -182718.83, 0.00, 0.00, 0.00, 0, -1
6, -179401.33, -177646.56, -178213.22, -182739.52, -179634.13, -128591.91, -179839.94, -182852.39, 0.00, 0.00, 0.00, 0, -1
7, -176356.91, -174949.02, -182949.09, -182931.91, -176977.39, -132534.23, -182899.98, -183044.39, 0.00, 0.00, 0.00, 0, -1
8, -175563.47, -173863.58, -182474.88, -182847.59, -177032.52, -130074.54, -182413.55, -182961.41, 0.00, 0.00, 0.00, 0, -1
9, -178307.50, -176314.33, -175236.98, -182613.23, -179744.31, -124625.81, -177891.61, -182729.58, 0.00, 0.00, 0.00, 0, -1
10, -179293.14, -177506.63, -175966.83, -182687.08, -179889.16, -126374.10, -178845.36, -182804.45, 0.00, 0.00, 0.00, 0, -1
11, -176422.83, -175017.08, -182702.45, -182913.50, -177220.09, -130965.62, -182750.56, -183030.45, 0.00, 0.00, 0.00, 0, -1
12, -174978.33, -173371.95, -182727.42, -182880.73, -176665.92, -129460.61, -182693.08, -182999.11, 0.00, 0.00, 0.00, 0, -1
13, -177078.02, -175161.98, -175757.92, -182635.19, -179071.08, -123587.57, -178577.45, -182756.70, 0.38, 0.91, -0.01, 0, -1
14, -178793.59, -177020.92, -173053.80, -182639.30, -179976.33, -123683.82, -177734.38, -182762.14, 0.00, 0.00, 0.00, 0, -1
15, -176341.72, -174932.25, -182051.53, -182885.78, -177482.95, -128659.30, -182435.31, -183008.08, 0.00, 0.00, 0.00, 0, -1
16, -174393.05, -172894.47, -182890.81, -182905.23, -176398.36, -128170.53, -182859.92, -183028.77, 0.00, 0.00, 0.00, 0, -1
17, -175823.95, -173974.63, -176641.56, -182663.39, -178370.67, -122228.05, -179353.63, -182791.47, 0.00, 0.00, 0.00, 0, -1
18, -178182.38, -176410.73, -169987.94, -182593.61, -179950.94, -120522.28, -176653.78, -182723.42, 0.00, 0.00, 0.00, 0, -1
19, -176458.61, -175013.45, -180655.22, -182844.39, -177866.28, -125554.35, -181846.44, -182972.80, 0.00, 0.00, 0.00, 0, -1
20, -174184.61, -172732.38, -182986.66, -182921.11, -176310.00, -126336.28, -182949.16, -183050.08, 0.00, 0.00, 0.00, 0, -1
21, -174945.06, -173126.92, -178016.19, -182691.13, -177774.61, -120830.62, -180201.14, -182832.88, 0.00, 0.00, 0.00, 0, -1
22, -177668.41, -175829.39, -168279.48, -182533.86, -179814.22, -117618.14, -176016.31, -182692.11, 0.00, 0.00, 0.00, 0, -1
23, -176825.19, -175286.64, -178797.30, -182785.42, -178271.00, -122517.82, -181068.72, -182923.25, 0.37, 0.89, -0.01, 0, -1
24, -174623.16, -173117.31, -183000.97, -182913.91, -176403.88, -124842.52, -182970.44, -183051.50, 0.00, 0.00, 0.00, 0, -1
25, -174772.38, -172914.67, -179964.84, -182133.41, -177321.34, -120490.78, -181189.69, -182868.27, 0.00, 0.00, 0.00, 0, -1
26, -177592.81, -175612.55, -169036.17, -180596.14, -179624.84, -116296.88, -176191.58, -182668.95, 0.00, 0.00, 0.00, 0, -1
27, -177681.81, -175999.47, -176972.44, -182077.23, -178773.14, -120810.55, -180192.16, -182860.00, 0.00, 0.00, 0.00, 0, -1
28, -175484.23, -173909.58, -182926.02, -182792.69, -176663.27, -124683.08, -182932.59, -183042.39, 0.00, 0.00, 0.00, 0, -1
29, -174994.38, -173092.19, -181412.14, -180736.28, -176980.25, -121668.07, -181931.55, -182903.30, 0.00, 0.00, 0.00, 0, -1
30, -177493.28, -175402.36, -170895.84, -177546.84, -179293.47, -116941.38, -176772.16, -182660.38, 0.00, 0.00, 0.00, 0, -1
31, -178461.94, -176610.41, -175161.58, -179003.77, -179158.55, -120319.70, -179221.73, -182795.33, 0.00, 0.00, 0.00, 0, -1
32, -176387.09, -174755.52, -182736.14, -180851.47, -176976.77, -124646.78, -182828.13, -183019.77, 0.00, 0.00, 0.00, 0, -1
33, -175304.09, -173376.23, -182308.22, -178848.17, -176682.63, -121724.49, -182448.25, -182938.34, 0.35, 0.88, -0.01, 0, -1
34, -177253.22, -175088.83, -173540.53, -175505.31, -178807.44, -115275.19, -177837.83, -182670.39, 0.00, 0.00, 0.00, 0, -1
35, -179315.08, -177296.75, -173491.42, -176590.42, -179513.17, -116306.27, -178327.91, -182727.92, 0.00, 0.00, 0.00, 0, -1
36, -177729.39, -176023.02, -182338.06, -179133.22, -177558.58, -120998.17, -182620.14, -182982.91, 0.00, 0.00, 0.00, 0, -1
37, -175800.52, -173891.81, -182788.89, -177933.45, -176587.92, -119426.23, -182771.13, -182964.13, 0.00, 0.00, 0.00, 0, -1
38, -176700.75, -174504.80, -176911.28, -174443.25, -178140.17, -112716.00, -179415.17, -182698.25, 0.00, 0.00, 0.00, 0, -1
39, -179563.27, -177447.41, -172972.91, -174701.45, -179517.50, -111900.23, -177950.23, -182674.25, 0.00, 0.00, 0.00, 0, -1
40, -179046.61, -177226.08, -181744.91, -177766.56, -178063.13, -117495.63, -182319.64, -182938.09, 0.00, 0.00, 0.00, 0, -1
41, -176503.66, -174647.72, -182936.27, -177522.67, -176597.38, -118016.96, -182892.56, -182981.36, 0.00, 0.00, 0.00, 0, -1
42, -175706.88, -173505.66, -180141.13, -174209.41, -177204.88, -112396.59, -180836.88, -182741.52, 0.00, 0.00, 0.00, 0, -1
43, -179163.78, -176986.06, -173982.91, -173467.28, -179096.83, -110219.38, -178027.30, -182631.72, 0.33, 0.91, -0.01, 0, -1
44, -181410.91, -179319.88, -180641.89, -176602.56, -179048.00, -115390.83, -181747.22, -182865.61, 0.00, 0.00, 0.00, 0, -1
45, -178257.84, -176352.00, -182933.39, -177327.58, -177329.61, -117463.46, -182906.83, -182976.98, 0.00, 0.00, 0.00, 0, -1
46, -173167.67, -171145.58, -182712.63, -174671.97, -175854.78, -113517.66, -182417.44, -182809.28, 0.00, 0.00, 0.00, 0, -1
47, -175283.42, -173413.86, -180219.47, -173030.84, -177063.05, -109809.94, -179972.97, -182643.78, 0.00, 0.00, 0.00, 0, -1
48, -181662.72, -181093.30, -178426.61, -175327.50, -180647.22, -112612.94, -180622.05, -182762.55, 0.00, 0.00, 0.00, 0, -1
49, -182096.45, -181603.78, -182051.13, -176752.20, -181359.02, -115448.05, -182636.81, -182884.30, 0.00, 0.00, 0.00, 0, -1
50, -173475.89, -171767.06, -182792.00, -175505.88, -176882.89, -114636.82, -182767.61, -182837.52, 0.00, 0.00, 0.00, 0, -1
51, -164496.86, -163265.11, -182730.42, -174288.09, -171909.52, -112782.36, -182697.31, -182765.48, 0.00, 0.00, 0.00, 0, -1
52, -176045.50, -175174.23, -182006.89, -175330.86, -176205.59, -113121.59, -182563.75, -182801.39, 0.35, 0.93, 0.00, 0, -1
53, -182439.06, -182257.95, -176143.63, -176100.81, -181858.33, -113994.54, -181235.92, -182817.34, 0.00, 0.00, 0.00, 0, -1
54, -178402.34, -177248.02, -177786.94, -175356.78, -180398.39, -113856.83, -181467.39, -182771.92, 0.00, 0.00, 0.00, 0, -1
55, -165798.47, -164434.00, -182469.00, -174595.03, -173415.13, -113319.61, -182590.70, -182739.94, 0.00, 0.00, 0.00, 0, -1
56, -173167.83, -172243.92, -182348.47, -175539.89, -174902.30, -113776.39, -182596.52, -182785.72, 0.00, 0.00, 0.00, 0, -1
57, -182156.89, -181934.86, -177029.09, -176391.16, -181336.61, -114597.75, -181224.61, -182810.27, 0.00, 0.00, 0.00, 0, -1
58, -179881.27, -178997.02, -176626.73, -175873.13, -181136.14, -114752.16, -181008.89, -182772.23, 0.00, 0.00, 0.00, 0, -1
59, -166514.17, -165271.50, -182199.14, -175117.73, -173882.63, -114382.59, -182481.67, -182739.09, 0.00, 0.00, 0.00, 0, -1
60, -169853.05, -169105.45, -182687.80, -175851.92, -172947.25, -114449.35, -182688.20, -182782.20, 0.00, 0.00, 0.00, 0, -1
61, -181482.22, -181182.92, -179901.56, -176781.27, -180018.02, -114928.95, -181823.20, -182815.38, 0.00, 0.00, 0.00, 0, -1
62, -180876.52, -180211.48, -177842.20, -176439.77, -181414.22, -115202.77, -181119.91, -182785.78, 0.35, 0.94, 0.02, 0, -1
63, -167838.70, -166721.45, -182162.83, -175636.97, -174380.39, -114979.65, -182442.47, -182750.16, 0.00, 0.00, 0.00, 0, -1
64, -166577.69, -166087.81, -182732.95, -176045.33, -171439.94, -115023.66, -182701.03, -182776.05, 0.00, 0.00, 0.00, 0, -1
65, -180246.23, -179854.52, -180849.95, -176904.27, -178685.06, -115597.66, -182013.56, -182807.36, 0.00, 0.00, 0.00, 0, -1
66, -181694.44, -181219.58, -177250.25, -176739.19, -181829.56, -116026.91, -180750.58, -182780.44, 0.00, 0.00, 0.00, 0, -1
67, -170262.19, -169089.91, -181600.55, -176016.55, -175877.64, -116126.59, -182166.38, -182745.98, 0.00, 0.00, 0.00, 0, -1
68, -164354.86, -164025.61, -182728.59, -176238.11, -170953.64, -116212.73, -182691.63, -182764.59, 0.00, 0.00, 0.00, 0, -1
69, -178645.63, -178193.27, -181323.95, -177036.81, -177504.86, -116580.52, -182044.98, -182798.50, 0.00, 0.00, 0.00, 0, -1
70, -182191.88, -181873.39, -176418.88, -177051.05, -182009.33, -116961.35, -180187.84, -182775.59, 0.00, 0.00, 0.00, 0, -1
71, -173132.52, -171946.28, -180575.56, -176446.55, -177548.14, -117265.65, -181614.53, -182738.73, 0.00, 0.00, 0.00, 0, -1
72, -163177.70, -162951.67, -182704.14, -176446.94, -171010.78, -117518.98, -182658.63, -182748.84, 0.34, 0.94, 0.01, 0, -1
73, -176548.02, -176098.41, -181834.31, -177146.55, -176235.72, -117820.65, -182145.95, -182784.77, 0.00, 0.00, 0.00, 0, -1
74, -182367.41, -182140.53, -176369.92, -177281.05, -181911.00, -118128.45, -179851.94, -182770.41, 0.00, 0.00, 0.00, 0, -1
75, -175853.55, -174726.64, -179361.19, -176862.44, -179051.53, -118546.48, -180915.44, -182734.48, 0.00, 0.00, 0.00, 0, -1
76, -163057.73, -162871.50, -182642.09, -176874.53, -171527.48, -118872.77, -182580.02, -182736.59, 0.00, 0.00, 0.00, 0, -1
77, -174009.33, -173645.38, -182209.73, -177491.17, -174894.77, -118943.06, -182284.38, -182774.92, 0.00, 0.00, 0.00, 0, -1
78, -182266.20, -182065.38, -176677.70, -177651.84, -181551.05, -119052.14, -179789.98, -182765.80, 0.00, 0.00, 0.00, 0, -1
79, -178098.92, -177088.70, -177837.73, -177352.59, -180270.17, -119460.03, -180169.30, -182730.69, 0.00, 0.00, 0.00, 0, -1
80, -163899.17, -163666.44, -182479.86, -177385.27, -172451.89, -119911.16, -182422.28, -182728.19, 0.00, 0.00, 0.00, 0, -1
81, -171140.80, -170965.11, -182455.78, -177908.48, -173605.59, -119984.88, -182383.95, -182761.36, 0.00, 0.00, 0.00, 0, -1
82, -181872.70, -181651.55, -177363.45, -178020.39, -180952.30, -120002.71, -179795.45, -182758.47, 0.33, 0.93, -0.01, 0, -1
83, -179835.92, -179000.50, -176255.72, -177767.38, -181191.92, -120409.98, -179316.11, -182724.20, 0.00, 0.00, 0.00, 0, -1
84, -165674.05, -165282.56, -182129.30, -177834.58, -173726.80, -120994.70, -182103.88, -182714.48, 0.00, 0.00, 0.00, 0, -1
85, -168346.42, -168398.81, -182601.81, -178299.59, -172539.59, -121147.30, -182464.22, -182749.84, 0.00, 0.00, 0.00, 0, -1
86, -181150.98, -180881.31, -178295.59, -178336.27, -180141.42, -121131.52, -179894.48, -182754.45, 0.00, 0.00, 0.00, 0, -1
87, -181085.89, -180469.86, -174773.84, -178075.92, -181829.64, -121491.61, -178436.67, -182719.06, 0.00, 0.00, 0.00, 0, -1
88, -168159.14, -167506.45, -181474.67, -178153.92, -175259.11, -122039.52, -181548.59, -182707.78, 0.00, 0.00, 0.00, 0, -1
89, -165862.05, -166080.70, -182670.78, -178604.11, -171781.95, -122253.09, -182523.05, -182738.52, 0.00, 0.00, 0.00, 0, -1
90, -179993.11, -179680.13, -179327.75, -178583.97, -179116.95, -122237.57, -180069.00, -182747.72, 0.00, 0.00, 0.00, 0, -1
91, -181832.27, -181406.02, -173720.25, -178274.64, -182151.11, -122511.88, -177575.97, -182716.20, 0.34, 0.93, -0.02, 0, -1
92, -171001.81, -170063.05, -180475.42, -178321.72, -176863.58, -122997.91, -180706.73, -182696.73, 0.00, 0.00, 0.00, 0, -1
93, -164049.77, -164234.64, -182681.78, -178766.58, -171459.36, -123201.41, -182531.83, -182723.34, 0.00, 0.00, 0.00, 0, -1
94, -178323.69, -177976.03, -180311.83, -178730.06, -177905.75, -123209.07, -180439.80, -182741.52, 0.00, 0.00, 0.00, 0, -1
95, -182227.38, -181948.20, -173111.70, -178343.47, -182229.16, -123500.16, -177059.58, -182711.84, 0.00, 0.00, 0.00, 0, -1
96, -173858.86, -172734.50, -178973.08, -178295.17, -178420.20, -123918.96, -179693.77, -182687.42, 0.00, 0.00, 0.00, 0, -1
97, -163103.05, -163002.38, -182636.70, -178708.69, -171619.84, -124064.43, -182441.97, -182709.30, 0.00, 0.00, 0.00, 0, -1
98, -176163.34, -175767.34, -181082.83, -178705.45, -176605.53, -124141.38, -180819.77, -182732.86, 0.00, 0.00, 0.00, 0, -1
99, -182334.17, -182136.36, -172953.56, -178280.22, -182085.73, -124383.59, -176732.33, -182705.95, 0.00, 0.00, 0.00, 0, -1
100, -176421.55, -175255.91, -176983.30, -178135.53, -179768.61, -124593.94, -178583.81, -182676.42, 0.00, 0.00, 0.00, 0, -1
101, -163136.13, -162562.80, -182479.20, -178513.83, -172261.89, -124548.97, -182224.84, -182691.84, 0.37, 0.91, -0.01, 0, -1
102, -173535.55, -173027.70, -181693.66, -178628.44, -175275.31, -124633.61, -181310.06, -182722.08, 0.00, 0.00, 0.00, 0, -1
103, -182185.58, -182000.45, -173392.00, -178217.69, -181730.42, -124961.87, -176853.75, -182702.02, 0.00, 0.00, 0.00, 0, -1
104, -178495.19, -177434.41, -174703.23, -177938.23, -180819.33, -125146.09, -177568.73, -182670.11, 0.00, 0.00, 0.00, 0, -1
105, -164100.17, -163001.31, -182123.30, -178142.22, -173304.17, -125004.72, -181857.00, -182679.14, 0.00, 0.00, 0.00, 0, -1
106, -170522.64, -169805.17, -182052.20, -178313.03, -174007.56, -125115.54, -181754.08, -182711.63, 0.00, 0.00, 0.00, 0, -1
107, -181719.61, -181474.66, -173802.22, -177969.25, -181139.61, -125563.89, -177250.27, -182697.13, 0.00, 0.00, 0.00, 0, -1
108, -180028.05, -179172.00, -171773.91, -177610.80, -181571.86, -125578.49, -176642.86, -182664.02, 0.00, 0.00, 0.00, 0, -1
109, -165821.86, -164284.31, -181304.97, -177668.52, -174655.66, -125004.61, -181297.47, -182667.50, 0.00, 0.00, 0.00, 0, -1
110, -167552.30, -166560.70, -182312.42, -177906.67, -173021.19, -124736.14, -182088.25, -182702.70, 0.00, 0.00, 0.00, 0, -1
111, -180877.84, -180513.63, -174600.69, -177675.48, -180348.28, -125164.83, -177869.39, -182695.22, 0.39, 0.90, 0.00, 0, -1
112, -181076.58, -180464.56, -168692.28, -177234.27, -182037.55, -125223.34, -175851.72, -182659.56, 0.00, 0.00, 0.00, 0, -1
113, -167974.50, -166189.38, -179643.95, -177072.39, -176131.72, -124463.38, -180483.20, -182657.78, 0.00, 0.00, 0.00, 0, -1
114, -164687.30, -163396.08, -182459.66, -177297.03, -172316.30, -123947.64, -182275.19, -182696.20, 0.00, 0.00, 0.00, 0, -1
115, -179435.78, -178902.84, -175490.09, -177257.03, -179323.17, -124345.41, -178540.28, -182698.89, 0.00, 0.00, 0.00, 0, -1
116, -181747.64, -181342.98, -165971.39, -176899.56, -182264.08, -124345.81, -175308.45, -182660.44, 0.00, 0.00, 0.00, 0, -1
117, -170567.66, -168740.36, -176994.78, -176679.36, -177681.30, -123324.29, -179494.14, -182646.36, 0.00, 0.00, 0.00, 0, -1
118, -162689.52, -161070.28, -182495.58, -176944.94, -172149.48, -122133.82, -182364.84, -182681.94, 0.00, 0.00, 0.00, 0, -1
119, -177444.33, -176705.89, -176876.86, -177138.89, -178215.39, -122230.60, -179653.28, -182688.80, 0.00, 0.00, 0.00, 0, -1
120, -182095.94, -181824.45, -164484.38, -176876.70, -182290.30, -122439.74, -175651.88, -182650.78, 0.00, 0.00, 0.00, 0, -1
121, -173221.67, -171525.78, -173695.78, -176563.84, -179145.98, -121690.49, -178838.73, -182630.48, 0.39, 0.89, 0.00, 0, -1
122, -161483.17, -159595.81, -182284.38, -176709.13, -172474.48, -120701.07, -182336.72, -182662.73, 0.00, 0.00, 0.00, 0, -1
123, -174552.08, -173582.81, -177979.25, -177023.44, -176934.45, -121208.48, -180920.36, -182675.64, 0.00, 0.00, 0.00, 0, -1
124, -182085.38, -181857.00, -163208.16, -176912.73, -182117.92, -121980.15, -176953.25, -182638.13, 0.00, 0.00, 0.00, 0, -1
125, -175288.86, -173842.86, -169379.39, -176636.59, -180319.08, -121544.80, -178787.80, -182614.28, 0.00, 0.00, 0.00, 0, -1
126, -160994.11, -159013.48, -181640.59, -176738.45, -173279.50, -119549.93, -182251.06, -182641.33, 0.00, 0.00, 0.00, 0, -1
127, -170967.19, -169821.02, -179021.69, -177119.22, -175754.47, -118056.70, -181963.41, -182602.91, 0.00, 0.00, 0.00, 0, -1
128, -181705.80, -181459.14, -162484.70, -176983.08, -181797.17, -117868.84, -178814.27, -180758.59, 0.00, 0.00, 0.00, 0, -1
129, -177112.31, -175954.20, -163999.17, -176617.33, -181265.28, -117393.75, -179434.36, -176466.13, 0.00, 0.00, 0.00, 0, -1
130, -161471.59, -159492.95, -180113.03, -176621.44, -174526.81, -116446.23, -182260.05, -172961.34, 0.37, 0.90, 0.01, 0, -1
131, -167256.78, -165975.69, -180227.11, -177067.92, -174814.33, -116824.98, -182507.69, -167043.23, 0.00, 0.00, 0.00, 0, -1
132, -180828.48, -180510.52, -164091.73, -177130.28, -181334.16, -118047.36, -180925.61, -159643.66, 0.00, 0.00, 0.00, 0, -1
133, -178755.14, -177873.05, -160133.75, -176890.88, -181888.39, -118090.16, -180505.66, -155373.56, 0.00, 0.00, 0.00, 0, -1
134, -163099.17, -161144.98, -177731.48, -176950.02, -176006.50, -116923.83, -182334.45, -154070.44, 0.00, 0.00, 0.00, 0, -1
135, -164000.06, -162570.84, -180954.98, -177468.78, -174111.36, -116767.50, -182588.25, -151100.83, 0.00, 0.00, 0.00, 0, -1
136, -179358.61, -178927.92, -165357.06, -177605.23, -180706.41, -117901.80, -182171.50, -145848.97, 0.00, 0.00, 0.00, 0, -1
137, -179976.06, -179333.27, -155981.22, -177397.00, -182219.22, -118182.70, -181577.67, -142984.48, 0.00, 0.00, 0.00, 0, -1
138, -165080.70, -163267.69, -173852.13, -177455.02, -177420.63, -117138.02, -182405.34, -143513.81, 0.00, 0.00, 0.00, 0, -1
139, -160968.89, -159454.81, -181399.63, -178006.16, -173548.64, -116699.19, -182574.50, -143242.94, 0.00, 0.00, 0.00, 0, -1
140, -177038.78, -176480.92, -167161.06, -178234.95, -179818.25, -117941.08, -182506.28, -139744.64, 0.36, 0.92, 0.02, 0, -1
141, -180710.39, -180238.47, -152902.17, -178091.14, -182343.00, -118599.60, -182183.61, -137664.66, 0.00, 0.00, 0.00, 0, -1
142, -167335.23, -165716.55, -168898.22, -178225.41, -178708.66, -117835.38, -182428.72, -138899.41, 0.00, 0.00, 0.00, 0, -1
143, -158697.33, -157141.08, -181392.84, -178917.80, -173312.61, -117240.22, -182552.28, -140082.00, 0.00, 0.00, 0.00, 0, -1
144, -173905.78, -173234.00, -169587.42, -179327.25, -178671.05, -118507.60, -182546.89, -137775.34, 0.00, 0.00, 0.00, 0, -1
145, -181013.86, -180655.02, -151375.19, -179235.86, -182307.77, -119550.05, -182447.88, -136145.41, 0.00, 0.00, 0.00, 0, -1
146, -169786.33, -168394.89, -163603.47, -179341.00, -179815.38, -119144.49, -182466.20, -137938.33, 0.00, 0.00, 0.00, 0, -1
147, -157627.88, -156050.58, -180725.11, -180009.45, -173482.48, -118456.91, -182529.41, -140558.19, 0.00, 0.00, 0.00, 0, -1
148, -170408.28, -169617.08, -172734.20, -180444.89, -177342.73, -119597.84, -182537.45, -139543.61, 0.00, 0.00, 0.00, 0, -1
149, -180877.17, -180570.42, -152056.05, -180298.38, -182117.72, -120918.73, -182396.80, -138034.75, 0.00, 0.00, 0.00, 0, -1
150, -172411.88, -171216.91, -159119.81, -180367.33, -180711.67, -120903.06, -182386.14, -139575.95, 0.35, 0.93, 0.03, 0, -1
151, -157904.09, -156295.69, -179331.08, -181100.38, -174080.92, -120203.41, -182497.78, -142602.58, 0.00, 0.00, 0.00, 0, -1
152, -167139.08, -166208.53, -175794.03, -181688.86, -176060.70, -121130.83, -182516.38, -142221.03, 0.00, 0.00, 0.00, 0, -1
153, -180268.64, -179956.03, -154429.84, -181521.91, -181766.84, -122643.05, -182359.92, -140327.17, 0.00, 0.00, 0.00, 0, -1
154, -175086.66, -174081.80, -155323.23, -181515.20, -181430.58, -122889.57, -182273.16, -141183.02, 0.00, 0.00, 0.00, 0, -1
155, -159327.59, -157693.98, -177066.33, -182083.58, -175106.64, -122191.20, -182459.88, -144203.73, 0.00, 0.00, 0.00, 0, -1
156, -164262.92, -163151.95, -178316.36, -182408.36, -174970.48, -122772.48, -182492.88, -144411.13, 0.00, 0.00, 0.00, 0, -1
157, -179187.11, -178793.52, -157855.81, -182387.53, -181258.47, -124302.65, -182444.86, -142214.20, 0.00, 0.00, 0.00, 0, -1
158, -177296.31, -176443.23, -152640.84, -182351.45, -181890.38, -124765.45, -182399.53, -142385.61, 0.00, 0.00, 0.00, 0, -1
159, -161519.59, -159876.23, -174106.45, -182366.05, -176357.09, -124129.70, -182434.08, -145314.09, 0.00, 0.00, 0.00, 0, -1
160, -161841.31, -160556.80, -180044.41, -182405.20, -174141.14, -124424.11, -182468.66, -146289.64, 0.32, 0.94, 0.03, 0, -1
161, -177646.70, -177112.77, -161994.11, -182381.20, -180578.64, -125882.25, -182436.63, -144123.31, 0.00, 0.00, 0.00, 0, -1
162, -179056.72, -178329.97, -151335.28, -182341.59, -182148.67, -126413.80, -182388.16, -143761.30, 0.00, 0.00, 0.00, 0, -1
163, -164355.30, -162702.50, -170642.70, -182344.50, -177705.14, -125723.57, -182406.44, -146507.66, 0.00, 0.00, 0.00, 0, -1
164, -160001.38, -158533.97, -181039.88, -182385.25, -173631.91, -125482.29, -182444.44, -148268.73, 0.00, 0.00, 0.00, 0, -1
165, -175645.95, -174916.05, -166699.75, -182366.69, -179669.84, -126642.63, -182407.63, -146241.25, 0.00, 0.00, 0.00, 0, -1
166, -180214.84, -179585.47, -151747.31, -182322.55, -182228.27, -127293.88, -182313.77, -145236.56, 0.00, 0.00, 0.00, 0, -1
167, -167483.50, -165826.56, -167411.08, -182314.70, -178935.59, -126848.73, -182364.20, -147466.13, 0.00, 0.00, 0.00, 0, -1
168, -158941.44, -157308.55, -181272.47, -182357.73, -173479.69, -126507.59, -182414.66, -149672.66, 0.00, 0.00, 0.00, 0, -1
169, -173122.56, -172159.75, -171327.56, -182353.45, -178478.42, -127479.64, -182407.81, -147967.73, 0.31, 0.94, 0.03, 0, -1
170, -180816.80, -180253.05, -153488.98, -182305.63, -182162.63, -128148.45, -182339.09, -146504.39, 0.00, 0.00, 0.00, 0, -1
171, -170718.61, -169080.77, -164373.88, -182289.80, -180000.06, -127781.39, -182338.11, -148443.61, 0.00, 0.00, 0.00, 0, -1
172, -158930.55, -157148.38, -180788.03, -182333.09, -173814.13, -127245.73, -182387.38, -151362.59, 0.00, 0.00, 0.00, 0, -1
173, -170605.05, -169405.14, -175085.66, -182336.61, -177313.14, -127905.93, -182388.02, -150354.77, 0.00, 0.00, 0.00, 0, -1
174, -180906.45, -180356.33, -156290.14, -182288.14, -181976.19, -128595.77, -182269.70, -148632.38, 0.00, 0.00, 0.00, 0, -1
175, -173914.72, -172349.69, -161560.03, -182263.42, -180871.19, -128394.02, -182263.06, -150225.44, 0.00, 0.00, 0.00, 0, -1
176, -159864.97, -157935.97, -179693.64, -182297.09, -174545.19, -127780.41, -182348.88, -153701.67, 0.00, 0.00, 0.00, 0, -1
177, -167991.89, -166557.03, -178134.14, -182313.73, -176102.17, -128118.88, -182359.98, -153673.98, 0.00, 0.00, 0.00, 0, -1
178, -180483.84, -179878.30, -160169.06, -182268.34, -181624.09, -128710.15, -182044.83, -151956.91, 0.00, 0.00, 0.00, 0, -1
179, -176549.09, -175127.50, -160044.00, -182236.22, -181442.16, -128543.80, -181898.06, -153203.28, 0.30, 0.93, 0.01, 0, -1
180, -161664.03, -159595.50, -178343.53, -182264.75, -175516.89, -127873.14, -182291.14, -156908.72, 0.00, 0.00, 0.00, 0, -1
181, -165361.11, -163714.61, -180371.67, -182297.05, -174903.56, -127821.44, -182337.70, -157812.25, 0.00, 0.00, 0.00, 0, -1
182, -179517.69, -178788.89, -164928.80, -182258.20, -181010.95, -128283.90, -181766.95, -155999.25, 0.00, 0.00, 0.00, 0, -1
183, -178754.36, -177565.42, -159427.02, -182216.83, -181824.95, -128190.06, -181134.75, -156740.42, 0.00, 0.00, 0.00, 0, -1
184, -164260.14, -162071.42, -176657.39, -182234.38, -176692.41, -127570.12, -182103.03, -160628.09, 0.00, 0.00, 0.00, 0, -1
185, -163401.06, -161573.95, -181392.31, -182274.58, -174115.08, -127341.59, -182314.03, -162578.11, 0.00, 0.00, 0.00, 0, -1
186, -178285.17, -177356.89, -169010.05, -182245.08, -180298.91, -127590.05, -181660.25, -160920.86, 0.00, 0.00, 0.00, 0, -1
187, -180297.59, -179368.19, -159116.56, -182200.38, -182034.30, -127463.05, -180455.86, -161080.50, 0.00, 0.00, 0.00, 0, -1
188, -167290.67, -165035.44, -174337.67, -182206.25, -177947.64, -126903.84, -181727.67, -164713.38, 0.00, 0.00, 0.00, 0, -1
189, -161739.59, -159752.09, -181854.86, -182247.69, -173619.19, -126558.41, -182281.33, -167544.25, 0.30, 0.91, -0.00, 0, -1
190, -176432.39, -175273.30, -172911.69, -182230.77, -179288.56, -126913.67, -181554.31, -166440.36, 0.00, 0.00, 0.00, 0, -1
191, -181121.34, -180444.31, -159976.44, -182185.64, -182077.73, -127126.01, -179655.52, -166460.39, 0.00, 0.00, 0.00, 0, -1
192, -170397.69, -168188.59, -172095.81, -182181.84, -179065.89, -126927.30, -181018.09, -169994.33, 0.00, 0.00, 0.00, 0, -1
193, -160836.31, -158710.66, -181839.45, -182223.47, -173513.81, -126728.82, -182222.67, -173794.89, 0.00, 0.00, 0.00, 0, -1
194, -174162.89, -172771.88, -176044.92, -182218.86, -178104.34, -127147.13, -181434.33, -173553.00, 0.00, 0.00, 0.00, 0, -1
195, -181457.92, -180936.98, -161471.66, -182173.06, -181987.45, -127490.88, -178704.89, -173545.23, 0.00, 0.00, 0.00, 0, -1
196, -173436.50, -171412.97, -169461.94, -182158.75, -180055.64, -127337.03, -179827.83, -177102.95, 0.00, 0.00, 0.00, 0, -1
197, -160768.17, -158533.81, -181415.27, -182202.27, -173847.84, -127043.66, -182061.25, -181370.05, 0.00, 0.00, 0.00, 0, -1
198, -171503.83, -169915.14, -178423.83, -182213.34, -176838.75, -127334.84, -181350.31, -182151.89, 0.33, 0.89, -0.02, 0, -1
199, -181355.83, -180876.25, -163660.92, -182170.38, -181753.89, -127770.91, -177734.86, -181911.97, 0.00, 0.00, 0.00, 0, -1
200, -176165.88, -174435.38, -167051.03, -182148.30, -180858.27, -127846.70, -178102.09, -182188.55, 0.00, 0.00, 0.00, 0, -1
201, -161723.83, -159405.48, -180625.72, -182181.75, -174596.20, -127621.23, -181606.06, -182275.81, 0.00, 0.00, 0.00, 0, -1
202, -168770.02, -167028.91, -180194.38, -182204.98, -175648.42, -127915.66, -181347.83, -182300.08, 0.00, 0.00, 0.00, 0, -1
203, -180878.17, -180340.59, -166796.28, -182168.88, -181360.17, -128476.41, -177150.78, -182264.09, 0.00, 0.00, 0.00, 0, -1
204, -178447.33, -177078.72, -165564.33, -182137.14, -181438.36, -128726.27, -176622.63, -182233.56, 0.00, 0.00, 0.00, 0, -1
205, -163858.00, -161453.39, -179600.00, -182160.94, -175716.16, -128698.66, -180940.58, -182259.52, 0.00, 0.00, 0.00, 0, -1
206, -166394.52, -164502.59, -181378.16, -182192.33, -174711.48, -129039.12, -181598.50, -182290.47, 0.00, 0.00, 0.00, 0, -1
207, -180053.89, -179381.55, -170669.78, -182159.14, -180794.61, -129781.02, -177442.64, -182257.28, 0.00, 0.00, 0.00, 0, -1
208, -180182.39, -179216.33, -165159.52, -182119.91, -181807.98, -130239.74, -175755.84, -182217.69, 0.35, 0.88, -0.04, 0, -1
209, -166855.91, -164417.55, -178325.70, -182132.63, -177044.05, -130281.41, -180157.67, -182231.44, 0.00, 0.00, 0.00, 0, -1
210, -164570.80, -162544.98, -181931.09, -182170.56, -174132.72, -130467.28, -181803.98, -182268.50, 0.00, 0.00, 0.00, 0, -1
211, -178946.39, -178078.88, -174186.63, -182150.42, -180106.53, -131136.98, -178143.86, -182248.47, 0.00, 0.00, 0.00, 0, -1
212, -181191.03, -180580.67, -165575.84, -182109.78, -181987.00, -131561.53, -175392.30, -182207.22, 0.00, 0.00, 0.00, 0, -1
213, -170118.81, -167774.47, -176864.50, -182110.67, -178352.20, -131544.89, -179354.53, -182208.78, 0.00, 0.00, 0.00, 0, -1
214, -163225.89, -161090.36, -182099.45, -182149.66, -173869.94, -131488.00, -181911.28, -182246.86, 0.00, 0.00, 0.00, 0, -1
215, -177300.89, -176208.94, -177054.02, -182142.84, -179186.58, -131837.77, -179040.38, -182240.19, 0.00, 0.00, 0.00, 0, -1
216, -181650.44, -181258.09, -166669.27, -182103.30, -182016.81, -132154.28, -175369.66, -182200.44, 0.00, 0.00, 0.00, 0, -1
217, -173194.30, -171068.00, -175372.94, -182093.02, -179479.63, -132157.50, -178518.70, -182190.66, 0.00, 0.00, 0.00, 0, -1
218, -162702.59, -160470.23, -182030.97, -182128.58, -173978.02, -132043.91, -181861.20, -182225.39, 0.36, 0.89, -0.04, 0, -1
219, -175201.91, -173881.77, -179253.00, -182134.56, -178100.58, -132317.78, -179899.17, -182231.02, 0.00, 0.00, 0.00, 0, -1
220, -181778.39, -181495.20, -168513.08, -182097.69, -181922.66, -132679.30, -175610.63, -182194.11, 0.00, 0.00, 0.00, 0, -1
221, -176025.88, -174230.67, -173829.53, -182078.75, -180426.42, -132759.08, -177655.50, -182175.39, 0.00, 0.00, 0.00, 0, -1
222, -163211.89, -160882.17, -181788.19, -182109.27, -174508.11, -132620.14, -181649.31, -182204.98, 0.00, 0.00, 0.00, 0, -1
223, -172919.73, -171391.45, -180690.84, -182125.83, -177022.77, -132794.89, -180612.39, -182220.38, 0.00, 0.00, 0.00, 0, -1
224, -181632.14, -181348.91, -170717.61, -182091.19, -181714.56, -133120.08, -176087.47, -182185.75, 0.00, 0.00, 0.00, 0, -1
225, -178255.98, -176831.70, -172439.30, -182063.88, -181115.94, -133236.55, -176889.64, -182158.58, 0.00, 0.00, 0.00, 0, -1
226, -164651.81, -162243.42, -181406.78, -182087.08, -175362.92, -133134.16, -181291.23, -182181.23, 0.00, 0.00, 0.00, 0, -1
227, -170325.58, -168577.86, -181535.59, -182115.23, -175888.89, -133217.13, -181224.98, -182208.13, 0.00, 0.00, 0.00, 0, -1
228, -181164.33, -180764.88, -173224.94, -182087.98, -181315.73, -133499.39, -176802.78, -182180.38, 0.37, 0.90, -0.04, 0, -1
229, -179846.80, -178796.66, -171312.23, -182055.94, -181570.41, -133635.89, -176258.52, -182148.52, 0.00, 0.00, 0.00, 0, -1
230, -166779.91, -164349.27, -180814.44, -182068.81, -176437.05, -133509.92, -180779.73, -182161.17, 0.00, 0.00, 0.00, 0, -1
231, -168024.16, -166141.77, -181928.27, -182101.13, -175043.86, -133450.69, -181577.78, -182192.39, 0.00, 0.00, 0.00, 0, -1
232, -180472.42, -179914.61, -175430.75, -182084.88, -180810.91, -133640.67, -177552.58, -182174.88, 0.00, 0.00, 0.00, 0, -1
233, -180949.08, -180295.06, -170227.80, -182050.13, -181855.11, -133777.28, -175728.42, -182140.09, 0.00, 0.00, 0.00, 0, -1
234, -169477.27, -167118.42, -179710.55, -182053.59, -177675.27, -133730.23, -180058.31, -182144.22, 0.00, 0.00, 0.00, 0, -1
235, -165944.13, -163921.88, -182098.69, -182088.34, -174445.48, -133674.84, -181804.92, -182178.41, 0.00, 0.00, 0.00, 0, -1
236, -179288.45, -178494.97, -177391.17, -182079.63, -180064.78, -133895.08, -178416.06, -182167.58, 0.00, 0.00, 0.00, 0, -1
237, -181496.30, -181069.67, -169931.61, -182044.64, -181968.55, -134153.25, -175493.20, -182131.80, 0.37, 0.91, -0.04, 0, -1
238, -172140.56, -169942.08, -178507.59, -182039.75, -178790.34, -134251.38, -179297.73, -182128.47, 0.00, 0.00, 0.00, 0, -1
239, -164409.69, -162293.16, -182130.05, -182074.33, -174140.22, -134297.23, -181880.08, -182163.09, 0.00, 0.00, 0.00, 0, -1
240, -177515.67, -176460.89, -179031.31, -182080.23, -179060.91, -134574.84, -179306.78, -182165.17, 0.00, 0.00, 0.00, 0, -1
241, -181767.27, -181491.52, -170148.69, -182044.16, -181967.98, -134868.80, -175502.06, -182124.06, 0.00, 0.00, 0.00, 0, -1
242, -174761.27, -172839.69, -176846.70, -182029.50, -179804.72, -135004.17, -178424.34, -182113.72, 0.00, 0.00, 0.00, 0, -1
243, -163793.17, -161605.59, -182042.80, -182057.80, -174285.53, -135020.11, -181787.73, -182144.53, 0.00, 0.00, 0.00, 0, -1
244, -175348.42, -174075.52, -180189.63, -182073.53, -177996.80, -135256.14, -180054.66, -182131.33, 0.00, 0.00, 0.00, 0, -1
245, -181795.83, -181579.52, -170703.23, -182046.39, -181863.67, -135623.86, -175704.44, -181796.59, 0.00, 0.00, 0.00, 0, -1
246, -177065.86, -175515.84, -174661.47, -182024.94, -180653.36, -135865.66, -177478.02, -181903.23, 0.00, 0.00, 0.00, 0, -1
247, -164074.25, -161846.78, -181779.56, -182045.30, -174847.59, -135933.27, -181530.41, -182127.91, 0.37, 0.93, -0.03, 0, -1
248, -172821.61, -171372.94, -180966.47, -182071.22, -176921.19, -136201.47, -180655.80, -182121.38, 0.00, 0.00, 0.00, 0, -1
249, -181600.05, -181354.47, -171639.28, -182047.06, -181648.17, -136661.75, -176094.09, -181628.09, 0.00, 0.00, 0.00, 0, -1
250, -178887.69, -177718.20, -172242.98, -182017.45, -181255.75, -136991.47, -176586.64, -181665.89, 0.00, 0.00, 0.00, 0, -1
251, -165231.95, -162995.48, -181209.30, -182028.55, -175718.20, -137085.92, -181086.45, -182094.17, 0.00, 0.00, 0.00, 0, -1
252, -169893.97, -168287.28, -181497.09, -182060.14, -175816.00, -137342.41, -181180.64, -182109.78, 0.00, 0.00, 0.00, 0, -1
253, -181072.38, -180704.17, -173029.47, -182050.19, -181248.33, -137886.03, -176694.33, -181453.67, 0.00, 0.00, 0.00, 0, -1
254, -180133.84, -179288.80, -170185.08, -182017.42, -181635.88, -138276.52, -175875.98, -181214.30, 0.00, 0.00, 0.00, 0, -1
255, -167091.20, -164913.20, -180336.61, -182017.09, -176771.14, -138364.09, -180492.98, -182004.53, 0.00, 0.00, 0.00, 0, -1
0, -167120.61, -165443.63, -181819.41, -182049.86, -174928.23, -138556.02, -181535.39, -182100.92, 0.00, 0.00, 0.00, 0, -1
1, -180165.84, -179636.88, -174610.75, -182048.05, -180668.27, -139136.36, -177443.39, -181315.64, 0.36, 0.93, -0.02, 0, -1
2, -181061.34, -180554.17, -168235.58, -182015.92, -181869.56, -139649.25, -175310.89, -180592.13, 0.00, 0.00, 0.00, 0, -1
3, -169655.14, -167622.14, -178646.69, -182005.59, -177983.78, -139843.39, -179670.06, -181719.47, 0.00, 0.00, 0.00, 0, -1
4, -164920.86, -163193.09, -181979.52, -182036.75, -174446.02, -140050.30, -181712.59, -182064.16, 0.00, 0.00, 0.00, 0, -1
5, -178872.27, -178185.00, -176240.03, -182045.19, -179970.78, -140711.88, -178244.92, -181001.66, 0.00, 0.00, 0.00, 0, -1
6, -181560.89, -181258.53, -167143.45, -182016.38, -181964.50, -141318.77, -175038.66, -179838.98, 0.00, 0.00, 0.00, 0, -1
7, -172377.11, -170577.08, -176526.92, -181996.77, -179122.88, -141546.08, -178757.53, -181201.61, 0.00, 0.00, 0.00, 0, -1
8, -163377.30, -161598.38, -181974.28, -182021.00, -174292.08, -141660.64, -181752.17, -182038.69, 0.00, 0.00, 0.00, 0, -1
9, -176903.69, -176029.59, -177865.30, -182038.20, -179019.08, -142302.47, -179119.86, -181041.39, 0.00, 0.00, 0.00, 0, -1
10, -181755.13, -181548.55, -166990.77, -182013.09, -181944.52, -142994.34, -175079.44, -179467.92, 0.00, 0.00, 0.00, 0, -1
11, -174893.08, -173351.73, -174174.64, -181985.81, -180070.00, -143264.44, -177852.52, -180646.03, 0.36, 0.92, -0.01, 0, -1
12, -162759.34, -160948.58, -181770.23, -182002.72, -174516.92, -143291.69, -181629.28, -181973.45, 0.00, 0.00, 0.00, 0, -1
13, -174298.25, -173252.97, -179283.88, -182029.03, -177884.20, -143862.14, -179960.39, -181298.53, 0.00, 0.00, 0.00, 0, -1
14, -181698.95, -181512.52, -167668.63, -182010.83, -181811.75, -144599.08, -175387.20, -179544.20, 0.00, 0.00, 0.00, 0, -1
15, -177067.30, -175813.98, -171682.89, -181980.39, -180802.20, -144877.44, -176964.39, -180339.45, 0.00, 0.00, 0.00, 0, -1
16, -163231.98, -161411.19, -181324.66, -181990.41, -175111.58, -144789.50, -181329.75, -181889.97, 0.00, 0.00, 0.00, 0, -1
17, -171430.91, -170262.27, -180395.69, -182021.52, -176749.78, -145221.56, -180633.97, -181610.64, 0.00, 0.00, 0.00, 0, -1
18, -181388.41, -181165.42, -169071.09, -182010.30, -181556.63, -146007.27, -175885.84, -179840.20, 0.00, 0.00, 0.00, 0, -1
19, -178921.66, -178003.47, -169068.19, -181976.08, -181344.44, -146369.81, -176097.19, -180085.88, 0.00, 0.00, 0.00, 0, -1
20, -164781.45, -162969.84, -180436.66, -181973.59, -176062.31, -146247.38, -180817.50, -181747.13, 0.35, 0.91, 0.00, 0, -1
21, -168630.47, -167378.78, -181132.94, -182006.14, -175792.16, -146554.81, -181127.06, -181777.13, 0.00, 0.00, 0.00, 0, -1
22, -180785.69, -180479.13, -170891.47, -182004.95, -181175.41, -147369.72, -176559.83, -180050.31, 0.00, 0.00, 0.00, 0, -1
23, -180223.78, -179595.25, -166886.23, -181972.81, -181678.30, -147777.34, -175430.55, -179745.66, 0.00, 0.00, 0.00, 0, -1
24, -167055.56, -165294.81, -179063.02, -181961.05, -177169.23, -147609.17, -180126.59, -181503.31, 0.00, 0.00, 0.00, 0, -1
25, -165987.72, -164669.08, -181615.42, -181991.11, -174993.95, -147737.97, -181487.02, -181882.75, 0.00, 0.00, 0.00, 0, -1
26, -179700.86, -179261.86, -173047.44, -181999.23, -180568.38, -148545.05, -177431.42, -180278.95, 0.00, 0.00, 0.00, 0, -1
27, -181044.23, -180642.41, -165427.84, -181969.48, -181856.06, -149037.53, -175057.47, -179431.73, 0.00, 0.00, 0.00, 0, -1
28, -169758.72, -168128.31, -177206.69, -181949.98, -178302.59, -148896.75, -179320.19, -181157.44, 0.00, 0.00, 0.00, 0, -1
29, -164034.53, -162692.58, -181830.27, -181976.55, -174559.08, -148879.28, -181641.95, -181926.23, 0.00, 0.00, 0.00, 0, -1
30, -178190.69, -177632.64, -175181.72, -181992.56, -179823.63, -149657.31, -178294.58, -180525.47, 0.34, 0.91, -0.01, 0, -1
31, -181519.22, -181276.67, -164740.94, -181966.27, -181920.48, -150250.45, -174903.11, -179218.61, 0.00, 0.00, 0.00, 0, -1
32, -172622.83, -171191.25, -174775.41, -181941.03, -179388.39, -150176.25, -178371.03, -180736.00, 0.00, 0.00, 0.00, 0, -1
33, -162896.77, -161515.64, -181797.58, -181962.59, -174513.88, -150027.72, -181632.44, -181927.59, 0.00, 0.00, 0.00, 0, -1
34, -176091.27, -175397.17, -177204.22, -181984.17, -178882.09, -150721.86, -179160.11, -180878.73, 0.00, 0.00, 0.00, 0, -1
35, -181668.92, -181493.56, -165078.17, -181961.75, -181880.72, -151420.97, -175014.48, -179248.98, 0.00, 0.00, 0.00, 0, -1
36, -175155.78, -173925.53, -172316.36, -181933.11, -180256.36, -151458.20, -177430.38, -180401.30, 0.00, 0.00, 0.00, 0, -1
37, -162716.05, -161299.92, -181511.61, -181948.06, -174798.92, -151217.19, -181437.73, -181876.61, 0.00, 0.00, 0.00, 0, -1
38, -173478.56, -172658.41, -179020.69, -181975.52, -177772.14, -151773.28, -179949.39, -181223.69, 0.00, 0.00, 0.00, 0, -1
39, -181563.53, -181400.69, -166546.19, -181961.23, -181735.77, -152528.95, -175340.47, -179351.89, 0.00, 0.00, 0.00, 0, -1
40, -177365.09, -176374.91, -169867.02, -181927.92, -180933.08, -152666.80, -176498.70, -179986.86, 0.33, 0.92, -0.01, 0, -1
41, -163583.56, -162121.47, -180894.05, -181930.44, -175463.16, -152388.47, -181029.81, -181727.75, 0.00, 0.00, 0.00, 0, -1
42, -170769.44, -169839.75, -180226.95, -181961.83, -176722.63, -152792.25, -180575.41, -181430.52, 0.00, 0.00, 0.00, 0, -1
43, -181190.67, -180989.27, -168276.59, -181954.28, -181479.55, -153581.69, -175872.70, -179465.39, 0.00, 0.00, 0.00, 0, -1
44, -179116.13, -178366.80, -167383.73, -181921.11, -181402.55, -153817.38, -175707.33, -179617.67, 0.00, 0.00, 0.00, 0, -1
45, -165309.86, -163798.63, -179808.02, -181916.84, -176424.70, -153510.08, -180425.64, -181524.75, 0.00, 0.00, 0.00, 0, -1
46, -168088.05, -167051.03, -181040.72, -181948.67, -175813.77, -153741.94, -181048.03, -181730.22, 0.00, 0.00, 0.00, 0, -1
47, -180501.11, -180212.20, -170427.39, -181949.31, -181091.95, -154565.03, -176553.72, -180083.64, 0.00, 0.00, 0.00, 0, -1
48, -180336.66, -179802.70, -165427.72, -181918.19, -181688.47, -154922.30, -175102.13, -179780.86, 0.00, 0.00, 0.00, 0, -1
49, -167637.03, -166088.34, -178190.31, -181901.19, -177520.00, -154647.47, -179649.08, -181458.42, 0.00, 0.00, 0.00, 0, -1
50, -165574.28, -164406.44, -181544.27, -181930.41, -175081.61, -154708.95, -181384.11, -181928.17, 0.34, 0.92, -0.02, 0, -1
51, -179288.72, -178849.00, -172858.22, -181941.22, -180475.36, -155522.03, -177396.48, -180893.47, 0.00, 0.00, 0.00, 0, -1
52, -181057.64, -180679.19, -164404.88, -181911.88, -181827.67, -155981.70, -174790.56, -180224.33, 0.00, 0.00, 0.00, 0, -1
53, -170247.95, -168680.83, -176277.61, -181888.34, -178606.44, -155735.75, -178818.17, -181516.36, 0.00, 0.00, 0.00, 0, -1
54, -163713.88, -162384.50, -181741.48, -181912.95, -174696.38, -155612.27, -181522.38, -181981.81, 0.00, 0.00, 0.00, 0, -1
55, -177591.73, -176960.77, -175197.28, -181932.16, -179689.64, -156348.09, -178289.83, -181653.52, 0.00, 0.00, 0.00, 0, -1
56, -181489.55, -181239.83, -164082.00, -181908.69, -181868.06, -156901.13, -174700.16, -180977.63, 0.00, 0.00, 0.00, 0, -1
57, -173034.84, -171543.19, -173680.89, -181880.63, -179630.28, -156730.47, -177863.70, -181662.25, 0.00, 0.00, 0.00, 0, -1
58, -162729.41, -161214.20, -181635.28, -181897.33, -174749.03, -156445.64, -181461.38, -181973.75, 0.00, 0.00, 0.00, 0, -1
59, -175489.03, -174644.36, -177228.45, -181921.89, -178824.00, -157069.70, -179128.39, -181973.95, 0.34, 0.92, -0.01, 0, -1
60, -181609.17, -181413.91, -164684.14, -181904.33, -181823.80, -157687.89, -174890.38, -181780.56, 0.00, 0.00, 0.00, 0, -1
61, -175556.42, -174187.63, -171068.20, -181871.47, -180467.52, -157588.59, -176978.45, -181869.91, 0.00, 0.00, 0.00, 0, -1
62, -162711.34, -160976.34, -181232.00, -181880.66, -175186.86, -157157.25, -181231.88, -181960.94, 0.00, 0.00, 0.00, 0, -1
63, -172834.34, -171705.41, -179025.83, -181910.19, -177805.58, -157557.39, -179960.70, -181989.23, 0.00, 0.00, 0.00, 0, -1
64, -181446.20, -181225.48, -166348.00, -181897.84, -181678.59, -158177.50, -175362.14, -181971.83, 0.00, 0.00, 0.00, 0, -1
65, -177673.11, -176456.42, -168802.77, -181864.19, -181070.97, -158126.61, -176239.39, -181941.52, 0.00, 0.00, 0.00, 0, -1
66, -163692.69, -161723.22, -180521.56, -181860.27, -175933.69, -157570.45, -180838.89, -181942.52, 0.00, 0.00, 0.00, 0, -1
67, -170028.66, -168603.50, -180361.88, -181891.58, -176807.02, -157715.77, -180660.84, -181973.45, 0.00, 0.00, 0.00, 0, -1
68, -180994.34, -180665.20, -168781.34, -181888.63, -181419.20, -158314.81, -176080.75, -181968.19, 0.00, 0.00, 0.00, 0, -1
69, -179300.95, -178300.00, -167105.56, -181857.09, -181464.23, -158323.48, -175688.75, -181937.56, 0.34, 0.91, -0.01, 0, -1
70, -165580.36, -163415.94, -179523.94, -181845.81, -176921.63, -157716.83, -180322.22, -181929.78, 0.00, 0.00, 0.00, 0, -1
71, -167350.91, -165639.09, -181201.78, -181876.94, -175958.38, -157637.23, -181182.55, -181960.98, 0.00, 0.00, 0.00, 0, -1
72, -180184.77, -179644.63, -171489.81, -181880.92, -181008.27, -158218.84, -176982.61, -181963.58, 0.00, 0.00, 0.00, 0, -1
73, -180478.53, -179734.94, -165930.58, -181848.02, -181692.77, -158332.63, -175327.95, -181930.39, 0.00, 0.00, 0.00, 0, -1
74, -168196.67, -165862.88, -178111.86, -181829.61, -178025.02, -157767.41, -179678.20, -181914.97, 0.00, 0.00, 0.00, 0, -1
75, -165242.53, -163237.64, -181626.80, -181856.06, -175431.14, -157498.50, -181464.33, -181941.67, 0.00, 0.00, 0.00, 0, -1
76, -179047.19, -178212.78, -174263.30, -181867.13, -180478.81, -158031.48, -177924.75, -181951.69, 0.00, 0.00, 0.00, 0, -1
77, -181188.55, -180683.83, -165702.23, -181838.50, -181797.89, -158262.84, -175198.06, -181922.09, 0.00, 0.00, 0.00, 0, -1
78, -171123.19, -168742.08, -176372.33, -181813.16, -179093.61, -157823.81, -178940.81, -181899.61, 0.00, 0.00, 0.00, 0, -1
79, -163741.47, -161451.83, -181758.52, -181837.42, -175211.50, -157442.91, -181576.31, -181924.22, 0.33, 0.91, -0.00, 0, -1
80, -177378.47, -176163.56, -176786.63, -181854.44, -179756.67, -157879.91, -178877.98, -181940.47, 0.00, 0.00, 0.00, 0, -1
81, -181505.34, -181135.36, -166467.34, -181830.16, -181812.17, -158199.47, -175307.05, -181915.17, 0.00, 0.00, 0.00, 0, -1
82, -173882.80, -171570.23, -174688.28, -181802.58, -179995.42, -157912.98, -178200.28, -181889.81, 0.00, 0.00, 0.00, 0, -1
83, -163093.08, -160566.02, -181664.48, -181822.25, -175315.09, -157488.53, -181531.94, -181910.05, 0.00, 0.00, 0.00, 0, -1
84, -175169.72, -173526.88, -178872.22, -181847.34, -178849.36, -157773.03, -179807.84, -181934.63, 0.00, 0.00, 0.00, 0, -1
85, -181554.70, -181223.80, -168134.91, -181825.72, -181750.20, -158131.30, -175734.03, -181911.92, 0.00, 0.00, 0.00, 0, -1
86, -176340.44, -174220.80, -173155.31, -181795.30, -180702.53, -158008.97, -177515.88, -181883.06, 0.00, 0.00, 0.00, 0, -1
87, -163520.08, -160820.03, -181401.83, -181806.06, -175783.52, -157635.41, -181333.55, -181894.63, 0.00, 0.00, 0.00, 0, -1
88, -172642.56, -170618.86, -180342.11, -181833.47, -177860.47, -157754.05, -180548.73, -181921.77, 0.00, 0.00, 0.00, 0, -1
89, -181349.73, -180937.05, -170424.31, -181817.27, -181592.30, -158077.20, -176330.48, -181905.06, 0.32, 0.92, -0.01, 0, -1
90, -178346.00, -176538.05, -171837.56, -181785.69, -181194.97, -158085.41, -176875.66, -181874.66, 0.00, 0.00, 0.00, 0, -1
91, -164974.95, -162182.05, -180976.92, -181789.55, -176546.39, -157842.81, -180985.00, -181879.33, 0.00, 0.00, 0.00, 0, -1
92, -170208.66, -167980.06, -181189.09, -181819.41, -176976.34, -157852.66, -181052.34, -181909.05, 0.00, 0.00, 0.00, 0, -1
93, -180918.02, -180324.97, -172939.91, -181807.98, -181342.22, -158078.95, -177041.52, -181897.64, 0.00, 0.00, 0.00, 0, -1
94, -179903.34, -178570.56, -170695.64, -181776.20, -181512.08, -158169.75, -176290.81, -181866.28, 0.00, 0.00, 0.00, 0, -1
95, -167315.63, -164527.52, -180228.41, -181772.58, -177524.86, -158086.17, -180416.22, -181863.52, 0.00, 0.00, 0.00, 0, -1
96, -168029.50, -165799.92, -181626.89, -181803.19, -176270.33, -158018.45, -181351.45, -181893.75, 0.00, 0.00, 0.00, 0, -1
97, -180222.27, -179367.67, -175437.00, -181803.11, -180976.53, -158064.94, -177718.77, -181893.78, 0.00, 0.00, 0.00, 0, -1
98, -180840.38, -179934.31, -170371.70, -181771.98, -181685.45, -158150.36, -175868.23, -181862.91, 0.32, 0.92, -0.00, 0, -1
99, -170117.91, -167435.59, -179350.30, -181761.97, -178547.31, -158266.28, -179731.13, -181853.58, 0.00, 0.00, 0.00, 0, -1
100, -166309.52, -164249.55, -181813.05, -181792.59, -175790.98, -158246.03, -181535.83, -181883.77, 0.00, 0.00, 0.00, 0, -1
101, -179126.92, -177976.19, -177699.67, -181797.11, -180425.28, -158102.89, -178519.75, -181888.52, 0.00, 0.00, 0.00, 0, -1
102, -181359.55, -180786.53, -170786.81, -181764.00, -181754.48, -158092.34, -175720.27, -181856.38, 0.00, 0.00, 0.00, 0, -1
103, -173052.47, -170578.09, -178289.08, -181747.44, -179511.44, -158328.06, -178971.94, -181839.44, 0.00, 0.00, 0.00, 0, -1
104, -165416.22, -163630.41, -181826.94, -181774.91, -175676.45, -158393.08, -181566.33, -181866.28, 0.00, 0.00, 0.00, 0, -1
105, -177714.16, -176365.30, -179487.00, -181785.97, -179765.67, -158051.70, -179321.16, -181876.97, 0.00, 0.00, 0.00, 0, -1
106, -181572.20, -181197.92, -172014.59, -181754.20, -181751.11, -157833.58, -175877.41, -181846.61, 0.00, 0.00, 0.00, 0, -1
107, -175755.09, -173556.17, -177274.16, -181732.78, -180325.28, -158080.38, -178247.89, -181824.81, 0.00, 0.00, 0.00, 0, -1
108, -165456.30, -163871.16, -181743.86, -181755.75, -175921.75, -158295.03, -181469.63, -181847.19, 0.33, 0.93, -0.02, 0, -1
109, -175944.39, -174472.06, -180751.16, -181775.89, -178974.64, -157850.78, -180124.86, -181866.13, 0.00, 0.00, 0.00, 0, -1
110, -181576.31, -181250.80, -173989.75, -181748.44, -181690.44, -157394.63, -176364.95, -181839.13, 0.00, 0.00, 0.00, 0, -1
111, -177966.91, -176048.39, -176654.75, -181724.48, -180930.91, -157556.33, -177706.00, -181815.59, 0.00, 0.00, 0.00, 0, -1
112, -166476.61, -164909.25, -181626.38, -181741.61, -176494.75, -157896.78, -181271.91, -181832.86, 0.00, 0.00, 0.00, 0, -1
113, -173968.34, -172491.48, -181448.38, -181764.33, -178117.88, -157443.67, -180811.38, -181854.17, 0.00, 0.00, 0.00, 0, -1
114, -181410.34, -181024.58, -176225.59, -181742.00, -181552.66, -156789.97, -177084.75, -181829.22, 0.00, 0.00, 0.00, 0, -1
115, -179601.02, -178092.91, -176328.33, -181712.80, -181327.83, -156858.14, -177303.50, -181800.97, 0.00, 0.00, 0.00, 0, -1
116, -168334.67, -166564.23, -181453.06, -181724.86, -177322.55, -157327.58, -180980.97, -181815.83, 0.00, 0.00, 0.00, 0, -1
117, -172047.55, -170617.31, -181744.86, -181752.67, -177344.30, -156993.59, -181276.91, -181841.41, 0.00, 0.00, 0.00, 0, -1
118, -181076.73, -180536.13, -178304.94, -181738.20, -181319.92, -156201.97, -177913.83, -181674.95, 0.33, 0.94, -0.03, 0, -1
119, -180646.38, -179572.75, -176495.25, -181704.36, -181559.77, -156126.38, -177056.45, -181483.63, 0.00, 0.00, 0.00, 0, -1
120, -170759.41, -168596.98, -181251.42, -181706.09, -178283.41, -156666.80, -180630.39, -181763.19, 0.00, 0.00, 0.00, 0, -1
121, -170445.28, -168905.75, -181822.98, -181735.34, -176781.95, -156543.16, -181545.44, -181761.72, 0.00, 0.00, 0.00, 0, -1
122, -180534.00, -179768.30, -180009.30, -181728.84, -180964.45, -155696.53, -178816.16, -180626.61, 0.00, 0.00, 0.00, 0, -1
123, -181250.47, -180610.34, -177227.44, -181695.67, -181675.00, -155443.33, -176983.08, -179536.33, 0.00, 0.00, 0.00, 0, -1
124, -173441.00, -171004.34, -181026.45, -181690.44, -179259.16, -155946.03, -180217.86, -180924.33, 0.00, 0.00, 0.00, 0, -1
125, -169400.98, -167542.28, -181817.16, -181715.66, -176538.44, -155988.94, -181658.20, -181457.80, 0.00, 0.00, 0.00, 0, -1
126, -179779.95, -178737.70, -181080.34, -181724.08, -180514.27, -155107.63, -179696.80, -179121.75, 0.00, 0.00, 0.00, 0, -1
127, -181524.30, -181159.52, -178408.88, -181691.78, -181714.58, -154645.50, -177195.84, -177245.27, 0.35, 0.97, -0.06, 0, -1
128, -175925.39, -173454.53, -180884.77, -181675.58, -180102.70, -155070.25, -179870.00, -178463.41, 0.00, 0.00, 0.00, 0, -1
129, -168948.16, -166625.75, -181803.81, -181698.22, -176584.19, -155375.17, -181675.16, -179633.41, 0.00, 0.00, 0.00, 0, -1
130, -178693.50, -177288.88, -181604.14, -181711.98, -179917.03, -154650.02, -180437.00, -176899.55, 0.00, 0.00, 0.00, 0, -1
131, -181607.52, -181394.48, -179769.11, -181681.28, -181698.73, -154089.91, -177390.34, -174260.03, 0.00, 0.00, 0.00, 0, -1
132, -178035.44, -175834.89, -180910.67, -181655.45, -180748.92, -154293.03, -179397.39, -174878.09, 0.00, 0.00, 0.00, 0, -1
133, -169319.58, -166496.47, -181777.50, -181664.53, -176929.03, -154510.39, -181610.39, -176310.55, 0.00, 0.00, 0.00, 0, -1
134, -177399.91, -175619.80, -181792.00, -181649.98, -179271.38, -153816.03, -181125.72, -174033.52, 0.00, 0.00, 0.00, 0, -1
135, -181604.83, -181424.20, -181489.25, -181347.88, -181662.28, -153416.20, -178500.11, -171365.83, 0.00, 0.00, 0.00, 0, -1
136, -179688.80, -178069.55, -181568.48, -180347.97, -181215.58, -153651.92, -179576.45, -171511.50, 0.00, 0.00, 0.00, 0, -1
137, -169975.13, -166758.06, -181731.02, -178531.31, -177193.98, -153087.03, -181550.77, -172453.00, 0.36, 0.96, -0.06, 0, -1
138, -175205.50, -172996.66, -181729.78, -177450.66, -178053.52, -152080.61, -181394.44, -170418.88, 0.00, 0.00, 0.00, 0, -1
139, -181442.00, -181132.41, -181745.81, -177439.78, -181473.06, -152154.20, -179202.63, -167703.55, 0.00, 0.00, 0.00, 0, -1
140, -180629.42, -179508.47, -181742.08, -176807.44, -181460.33, -152642.45, -179474.27, -167229.38, 0.00, 0.00, 0.00, 0, -1
141, -171732.31, -168220.94, -181705.53, -175016.44, -177927.02, -152204.02, -181470.00, -167934.17, 0.00, 0.00, 0.00, 0, -1
142, -173630.52, -170818.97, -181695.64, -173917.52, -177198.44, -151093.19, -181551.75, -166219.44, 0.00, 0.00, 0.00, 0, -1
143, -181169.42, -180615.56, -181719.00, -174183.39, -181168.50, -150988.52, -179902.69, -163236.27, 0.00, 0.00, 0.00, 0, -1
144, -181171.09, -180444.44, -181717.13, -173945.98, -181573.25, -151380.78, -179411.86, -162427.91, 0.00, 0.00, 0.00, 0, -1
145, -173816.19, -170408.05, -181679.16, -172310.06, -178677.30, -150925.50, -181374.05, -163226.17, 0.00, 0.00, 0.00, 0, -1
146, -172191.02, -169146.80, -181657.67, -171010.83, -176448.17, -149740.66, -181592.86, -162049.42, 0.00, 0.00, 0.00, 0, -1
147, -180672.41, -179828.36, -181681.72, -171349.41, -180651.69, -149427.36, -180563.91, -158911.33, 0.36, 0.96, -0.06, 0, -1
148, -181425.77, -181053.81, -181690.13, -171465.41, -181614.11, -149971.44, -179511.50, -157454.78, 0.00, 0.00, 0.00, 0, -1
149, -175982.31, -172990.89, -181655.70, -169999.11, -179461.84, -149934.02, -181243.94, -157810.75, 0.00, 0.00, 0.00, 0, -1
150, -171443.27, -168330.41, -181624.22, -168461.56, -176120.00, -148940.83, -181578.84, -156738.45, 0.00, 0.00, 0.00, 0, -1
151, -180030.80, -179010.72, -181645.67, -168796.36, -180095.98, -148677.25, -181068.95, -153222.56, 0.00, 0.00, 0.00, 0, -1
152, -181499.20, -181328.97, -181658.30, -169311.44, -181597.69, -149590.03, -179875.64, -151067.66, 0.00, 0.00, 0.00, 0, -1
153, -177941.19, -175537.70, -181627.70, -168173.09, -180172.98, -150004.91, -181158.78, -150734.70, 0.00, 0.00, 0.00, 0, -1
154, -171398.33, -168191.78, -181587.72, -166493.80, -176103.59, -149254.38, -181544.70, -149770.14, 0.00, 0.00, 0.00, 0, -1
155, -179135.05, -177814.95, -181603.05, -166755.39, -179306.94, -148856.48, -181371.56, -146273.36, 0.00, 0.00, 0.00, 0, -1
156, -181482.72, -181383.70, -181624.03, -167598.94, -181531.25, -149486.67, -180362.55, -143761.14, 0.00, 0.00, 0.00, 0, -1
157, -179437.42, -177668.47, -181600.66, -166806.19, -180674.78, -149854.22, -181102.67, -143578.75, 0.34, 0.94, -0.08, 0, -1
158, -172052.56, -168904.53, -181554.83, -165044.77, -176292.53, -149177.77, -181512.19, -143241.47, 0.00, 0.00, 0.00, 0, -1
159, -178022.45, -176463.48, -181564.69, -165011.55, -178282.67, -148602.19, -181472.95, -140181.13, 0.00, 0.00, 0.00, 0, -1
160, -181427.30, -181306.91, -181590.08, -166014.05, -181389.56, -149186.88, -180802.38, -137366.91, 0.00, 0.00, 0.00, 0, -1
161, -180364.36, -179205.84, -181574.34, -165567.02, -181015.23, -149754.47, -181074.83, -136852.06, 0.00, 0.00, 0.00, 0, -1
162, -173004.86, -170017.23, -181522.41, -163756.52, -176713.91, -149216.48, -181477.92, -136868.47, 0.00, 0.00, 0.00, 0, -1
163, -176669.44, -174942.16, -181521.39, -163442.34, -177288.78, -148481.78, -181470.95, -134353.30, 0.00, 0.00, 0.00, 0, -1
164, -181322.78, -181132.03, -181556.98, -164637.47, -181176.80, -148890.47, -181052.83, -131442.30, 0.00, 0.00, 0.00, 0, -1
165, -180927.39, -180254.77, -181553.14, -164595.30, -181242.83, -149486.22, -181037.97, -130579.91, 0.00, 0.00, 0.00, 0, -1
166, -174480.02, -171867.03, -181499.28, -162832.83, -177369.16, -149067.73, -181448.80, -130629.76, 0.36, 0.89, -0.03, 0, -1
167, -175422.16, -173769.81, -181485.97, -162145.81, -176299.61, -148156.59, -181446.73, -128629.75, 0.00, 0.00, 0.00, 0, -1
168, -181127.89, -180868.50, -181526.25, -163389.72, -180811.44, -148341.02, -181212.50, -125773.20, 0.00, 0.00, 0.00, 0, -1
169, -181212.67, -180844.52, -181530.11, -163739.13, -181364.69, -148998.09, -181008.02, -124701.90, 0.00, 0.00, 0.00, 0, -1
170, -176106.73, -173892.31, -181476.88, -162187.52, -178125.22, -148829.31, -181411.20, -124616.24, 0.00, 0.00, 0.00, 0, -1
171, -174376.80, -172774.86, -181449.42, -161197.53, -175432.44, -147917.83, -181412.52, -122863.27, 0.00, 0.00, 0.00, 0, -1
172, -180777.94, -180431.81, -181487.06, -162367.84, -180196.53, -147810.38, -181255.30, -119809.57, 0.00, 0.00, 0.00, 0, -1
173, -181324.00, -181149.97, -181503.02, -163129.70, -181407.28, -148402.92, -180887.39, -118282.39, 0.00, 0.00, 0.00, 0, -1
174, -177890.53, -176144.08, -181455.36, -161930.58, -178884.53, -148350.44, -181348.70, -118173.34, 0.00, 0.00, 0.00, 0, -1
175, -174123.08, -172632.22, -181417.84, -160731.88, -174836.80, -147405.59, -181382.41, -116883.57, 0.00, 0.00, 0.00, 0, -1
176, -180316.09, -179928.86, -181450.09, -161706.14, -179338.80, -147015.31, -181291.38, -113794.34, 0.38, 0.89, -0.04, 0, -1
177, -181324.09, -181243.81, -181469.20, -162766.56, -181381.58, -147560.58, -180795.63, -111965.85, 0.00, 0.00, 0.00, 0, -1
178, -179177.03, -177959.75, -181431.83, -161923.30, -179598.97, -147845.81, -181252.13, -111766.90, 0.00, 0.00, 0.00, 0, -1
179, -174060.31, -172775.27, -181383.23, -160518.69, -174619.44, -147170.98, -181348.70, -111070.58, 0.00, 0.00, 0.00, 0, -1
180, -179611.34, -179238.52, -181405.70, -161130.95, -178309.02, -146470.23, -181277.41, -108652.97, 0.00, 0.00, 0.00, 0, -1
181, -181293.70, -181238.72, -181436.75, -162335.16, -181294.97, -146713.50, -180591.63, -106911.99, 0.00, 0.00, 0.00, 0, -1
182, -180055.28, -179311.80, -181405.61, -161806.28, -180172.41, -147114.86, -181049.25, -106591.98, 0.00, 0.00, 0.00, 0, -1
183, -174310.25, -173564.17, -181350.88, -160260.34, -174689.73, -146733.28, -181316.27, -106180.26, 0.00, 0.00, 0.00, 0, -1
184, -178622.70, -178563.70, -181362.47, -160497.02, -176953.77, -145972.73, -181251.92, -103932.03, 0.00, 0.00, 0.00, 0, -1
185, -181244.61, -181188.22, -181400.20, -161865.66, -181086.45, -146098.75, -180316.55, -101978.13, 0.00, 0.00, 0.00, 0, -1
186, -180611.64, -180152.91, -181383.08, -161731.42, -180598.16, -146632.63, -180654.75, -101610.60, 0.39, 0.84, -0.03, 0, -1
187, -174965.69, -174449.69, -181326.16, -160195.86, -175107.52, -146480.97, -181280.44, -101455.75, 0.00, 0.00, 0.00, 0, -1
188, -177455.83, -177661.84, -181324.97, -160070.98, -175554.42, -145583.36, -181225.59, -99655.49, 0.00, 0.00, 0.00, 0, -1
189, -181156.45, -181102.66, -181366.55, -161489.47, -180723.59, -145493.00, -179997.97, -97869.05, 0.00, 0.00, 0.00, 0, -1
190, -180946.95, -180653.14, -181362.08, -161704.11, -180902.77, -146083.20, -179925.48, -97614.34, 0.00, 0.00, 0.00, 0, -1
191, -176020.77, -175368.92, -181304.52, -160211.75, -175849.53, -146175.17, -181187.14, -97915.50, 0.00, 0.00, 0.00, 0, -1
192, -176296.31, -176563.47, -181285.52, -159655.78, -174271.22, -145327.75, -181192.56, -96705.49, 0.00, 0.00, 0.00, 0, -1
193, -180972.13, -180928.72, -181325.08, -160999.61, -180137.27, -144990.67, -179684.19, -94979.51, 0.00, 0.00, 0.00, 0, -1
194, -181087.70, -180894.25, -181330.23, -161543.70, -181071.30, -145477.08, -178836.30, -94627.38, 0.00, 0.00, 0.00, 0, -1
195, -176992.27, -176133.89, -181274.08, -160155.03, -176666.94, -145653.81, -180899.19, -94984.67, 0.00, 0.00, 0.00, 0, -1
196, -174998.81, -175143.38, -181242.89, -159210.89, -173084.28, -144836.02, -181163.03, -94116.33, 0.41, 0.83, 0.03, 0, -1
197, -180613.20, -180581.13, -181286.31, -160498.75, -179224.02, -144318.44, -179557.91, -92469.19, 0.00, 0.00, 0.00, 0, -1
198, -181141.58, -181024.09, -181305.47, -161437.45, -181156.92, -144841.38, -177814.58, -92059.12, 0.00, 0.00, 0.00, 0, -1
199, -178178.98, -177125.47, -181258.53, -160309.98, -177725.39, -145328.22, -180387.53, -92540.22, 0.00, 0.00, 0.00, 0, -1
200, -174245.98, -173921.63, -181215.52, -159059.17, -172523.81, -144817.17, -181154.94, -92144.33, 0.00, 0.00, 0.00, 0, -1
201, -180070.97, -180007.95, -181256.50, -160101.86, -178069.06, -144169.39, -179709.34, -90685.36, 0.00, 0.00, 0.00, 0, -1
202, -181145.69, -181080.45, -181288.31, -161337.44, -181142.91, -144580.78, -177075.86, -90262.17, 0.00, 0.00, 0.00, 0, -1
203, -179284.08, -178282.16, -181256.14, -160595.56, -178776.91, -145279.19, -179642.14, -90855.05, 0.00, 0.00, 0.00, 0, -1
204, -174165.17, -173076.66, -181204.17, -159202.59, -172603.78, -145147.84, -181131.31, -90919.67, 0.00, 0.00, 0.00, 0, -1
205, -179343.33, -179088.00, -181231.78, -159913.84, -176896.11, -144455.75, -179985.27, -89732.62, 0.36, 0.84, 0.04, 0, -1
206, -181131.80, -181079.98, -181273.89, -161335.25, -181034.50, -144759.55, -176661.05, -89331.29, 0.00, 0.00, 0.00, 0, -1
207, -180116.36, -179311.77, -181252.45, -160983.89, -179693.41, -145644.98, -178628.14, -90068.63, 0.00, 0.00, 0.00, 0, -1
208, -174704.41, -172898.98, -181196.95, -159536.44, -173228.31, -145882.72, -181024.30, -90582.72, 0.00, 0.00, 0.00, 0, -1
209, -178470.45, -177814.14, -181209.94, -159841.98, -175670.56, -145056.73, -180267.30, -89705.48, 0.00, 0.00, 0.00, 0, -1
210, -181095.86, -181030.03, -181252.50, -161338.23, -180799.92, -144960.05, -176534.88, -89274.63, 0.00, 0.00, 0.00, 0, -1
211, -180660.89, -180097.91, -181247.47, -161431.44, -180367.47, -145828.39, -177529.16, -90063.34, 0.00, 0.00, 0.00, 0, -1
212, -175871.92, -173584.52, -181198.45, -160162.45, -174326.81, -146461.55, -180796.17, -90900.52, 0.00, 0.00, 0.00, 0, -1
213, -177686.48, -176498.36, -181192.56, -160054.73, -174495.33, -145623.94, -180569.08, -90242.95, 0.00, 0.00, 0.00, 0, -1
214, -181024.58, -180916.89, -181231.45, -161426.03, -180369.67, -145045.42, -176821.11, -89611.09, 0.00, 0.00, 0.00, 0, -1
215, -180935.75, -180607.59, -181236.94, -161889.48, -180774.11, -145885.50, -176559.80, -90285.35, 0.28, 0.85, 0.02, 0, -1
216, -177137.53, -174923.56, -181192.39, -160864.88, -175564.39, -146988.00, -180389.69, -91286.69, 0.00, 0.00, 0.00, 0, -1
217, -177026.39, -175492.17, -181175.19, -160428.05, -173575.64, -146374.23, -180748.97, -90903.20, 0.00, 0.00, 0.00, 0, -1
218, -180888.22, -180722.94, -181208.38, -161561.63, -179755.83, -145263.72, -177077.91, -90131.08, 0.00, 0.00, 0.00, 0, -1
219, -181043.95, -180882.52, -181218.23, -162302.31, -180995.66, -145818.44, -175467.47, -90684.29, 0.00, 0.00, 0.00, 0, -1
220, -178478.45, -176492.97, -181183.06, -161637.70, -176896.02, -147298.59, -179659.34, -91846.40, 0.00, 0.00, 0.00, 0, -1
221, -176773.48, -174708.09, -181153.78, -161016.02, -173053.61, -147192.20, -180875.36, -91770.80, 0.00, 0.00, 0.00, 0, -1
222, -180675.48, -180396.77, -181178.89, -161839.23, -178958.25, -145826.94, -177641.84, -90907.88, 0.00, 0.00, 0.00, 0, -1
223, -181055.58, -180980.48, -181196.80, -162775.55, -181070.58, -146080.73, -174860.53, -91284.50, 0.00, 0.00, 0.00, 0, -1
224, -179597.25, -178016.59, -181168.53, -162485.20, -178120.73, -147797.03, -178753.08, -92412.70, 0.00, 0.00, 0.00, 0, -1
225, -176978.67, -174408.75, -181132.25, -161833.53, -172931.17, -148199.02, -180905.31, -92560.07, 0.22, 0.90, 0.05, 0, -1
226, -180405.95, -179938.47, -181149.23, -162344.84, -177965.23, -146261.81, -178231.38, -91743.67, 0.00, 0.00, 0.00, 0, -1
227, -181029.25, -180980.59, -181167.56, -163349.98, -181027.70, -145756.77, -174431.20, -91997.16, 0.00, 0.00, 0.00, 0, -1
228, -180333.23, -179337.86, -181148.70, -163407.86, -179130.47, -147520.80, -177624.03, -93048.72, 0.00, 0.00, 0.00, 0, -1
229, -177564.64, -175071.06, -181109.86, -162840.72, -173207.16, -148696.86, -180801.16, -93362.38, 0.00, 0.00, 0.00, 0, -1
230, -180112.52, -179514.13, -181116.20, -163055.17, -176800.44, -146798.97, -178833.89, -92628.73, 0.00, 0.00, 0.00, 0, -1
231, -180999.92, -180952.28, -181138.80, -164023.63, -180879.58, -145719.48, -174332.58, -92790.60, 0.00, 0.00, 0.00, 0, -1
232, -180728.64, -180173.52, -181127.73, -164379.22, -179893.63, -147263.14, -176472.02, -93803.95, 0.00, 0.00, 0.00, 0, -1
233, -178397.52, -175924.67, -181086.14, -164014.56, -173885.70, -148943.39, -180533.48, -94264.92, 0.00, 0.00, 0.00, 0, -1
234, -179846.11, -178954.14, -181080.06, -163984.33, -175610.20, -147296.16, -179412.03, -93667.84, 0.00, 0.00, 0.00, 0, -1
235, -180963.11, -180911.08, -181104.84, -164782.84, -180607.36, -145729.34, -174495.89, -93780.70, 0.20, 0.95, 0.08, 0, -1
236, -180900.42, -180651.27, -181102.48, -165404.00, -180415.25, -147106.30, -175322.94, -94733.82, 0.00, 0.00, 0.00, 0, -1
237, -179395.98, -177209.67, -181058.41, -165382.16, -174906.00, -149349.80, -180057.64, -95240.13, 0.00, 0.00, 0.00, 0, -1
238, -179778.61, -178481.73, -181042.02, -165245.77, -174522.17, -148234.23, -179978.70, -94737.73, 0.00, 0.00, 0.00, 0, -1
239, -180913.72, -180844.56, -181066.69, -165762.14, -180158.39, -146225.75, -175144.98, -94771.51, 0.00, 0.00, 0.00, 0, -1
240, -180921.97, -180822.39, -181069.20, -166467.78, -180716.75, -147020.16, -174591.73, -95635.18, 0.00, 0.00, 0.00, 0, -1
241, -180241.38, -178656.95, -181029.98, -166656.86, -176086.28, -149232.00, -179498.52, -96118.89, 0.00, 0.00, 0.00, 0, -1
242, -180034.28, -178564.09, -181003.61, -166402.20, -173713.03, -148592.09, -180431.48, -95616.67, 0.00, 0.00, 0.00, 0, -1
243, -180857.06, -180762.89, -181024.98, -166497.30, -179548.19, -146159.50, -176354.52, -95363.67, 0.00, 0.00, 0.00, 0, -1
244, -180896.39, -180847.11, -181036.83, -167117.02, -180863.25, -146453.41, -174486.30, -95983.57, 0.20, 0.95, -0.05, 0, -1
245, -180747.58, -179841.89, -181009.92, -167539.64, -177306.30, -148895.16, -178926.77, -96502.52, 0.00, 0.00, 0.00, 0, -1
246, -180546.08, -179060.73, -180978.31, -167330.03, -173250.41, -149005.86, -180706.27, -95895.02, 0.00, 0.00, 0.00, 0, -1
247, -180809.61, -180679.14, -180981.00, -166977.25, -178670.70, -146238.11, -177809.34, -95173.19, 0.00, 0.00, 0.00, 0, -1
248, -180850.66, -180804.81, -180989.52, -167422.20, -180868.44, -145907.38, -175005.14, -95593.02, 0.00, 0.00, 0.00, 0, -1
249, -180810.67, -180494.38, -180977.53, -168059.92, -178321.14, -148377.52, -178446.23, -96363.04, 0.00, 0.00, 0.00, 0, -1
250, -180755.28, -179788.95, -180947.84, -168058.33, -173112.48, -149309.73, -180749.55, -96164.66, 0.00, 0.00, 0.00, 0, -1
251, -180786.30, -180630.63, -180946.42, -167657.77, -177592.03, -146808.06, -178744.80, -95392.33, 0.00, 0.00, 0.00, 0, -1
252, -180818.03, -180772.44, -180956.61, -168004.64, -180791.25, -145983.06, -175199.63, -95687.84, 0.00, 0.00, 0.00, 0, -1
253, -180787.63, -180717.56, -180945.95, -168548.17, -179213.13, -148079.34, -177745.20, -96494.63, 0.00, 0.00, 0.00, 0, -1
254, -180726.56, -180488.47, -180913.56, -168550.08, -173462.41, -149533.20, -180647.48, -96505.62, 0.17, 0.97, 0.02, 0, -1
255, -180741.00, -180647.42, -180906.11, -168108.50, -176593.28, -147400.92, -179392.41, -95742.55, 0.00, 0.00, 0.00, 0, -1
0, -180775.73, -180730.44, -180915.61, -168363.75, -180638.50, -146149.89, -175418.52, -95832.74, 0.00, 0.00, 0.00, 0, -1
1, -180759.48, -180713.41, -180911.58, -168846.17, -179877.52, -147760.98, -176953.38, -96606.13, 0.00, 0.00, 0.00, 0, -1
2, -180698.48, -180651.02, -180879.47, -168875.72, -174196.69, -149527.36, -180440.13, -96786.38, 0.00, 0.00, 0.00, 0, -1
3, -180696.13, -180650.45, -180865.34, -168435.55, -175452.41, -147863.47, -180019.92, -95942.76, 0.00, 0.00, 0.00, 0, -1
4, -180732.00, -180686.84, -180874.33, -168577.66, -180347.17, -146216.19, -176212.47, -95721.55, 0.00, 0.00, 0.00, 0, -1
5, -180726.50, -180680.75, -180874.20, -169006.30, -180293.33, -147304.94, -176539.81, -96381.48, 0.00, 0.00, 0.00, 0, -1
6, -180671.17, -180625.17, -180847.52, -169003.39, -175156.28, -149119.91, -180197.80, -96766.09, 0.00, 0.00, 0.00, 0, -1
7, -180655.53, -180610.47, -180828.47, -168552.88, -174369.64, -148019.42, -180407.31, -95932.95, 0.00, 0.00, 0.00, 0, -1
8, -180687.98, -180642.88, -180834.02, -168579.63, -179862.78, -146173.72, -177108.59, -95311.39, 0.21, 1.00, 0.11, 0, -1
9, -180690.92, -180645.25, -180835.69, -168980.50, -180528.17, -146788.39, -176244.06, -95725.43, 0.00, 0.00, 0.00, 0, -1
10, -180640.52, -180595.27, -180811.81, -168933.39, -176240.64, -148489.88, -179892.78, -96165.85, 0.00, 0.00, 0.00, 0, -1
11, -180612.42, -180568.05, -180787.83, -168463.58, -173563.97, -147889.63, -180595.98, -95462.45, 0.00, 0.00, 0.00, 0, -1
12, -180641.45, -180596.59, -180791.50, -168423.45, -179176.25, -145998.84, -178051.91, -94551.95, 0.00, 0.00, 0.00, 0, -1
13, -180653.00, -180607.56, -180795.72, -168828.58, -180630.05, -146183.38, -176135.19, -94718.73, 0.00, 0.00, 0.00, 0, -1
14, -180612.17, -180567.27, -180778.06, -168801.17, -177346.48, -147708.69, -179507.09, -95215.08, 0.00, 0.00, 0.00, 0, -1
15, -180574.39, -180530.55, -180750.53, -168334.58, -173174.41, -147535.45, -180653.23, -94675.93, 0.00, 0.00, 0.00, 0, -1
16, -180597.03, -180552.56, -180751.05, -168217.64, -178344.66, -145652.45, -178868.47, -93559.91, 0.00, 0.00, 0.00, 0, -1
17, -180613.80, -180568.58, -180755.64, -168638.14, -180628.83, -145467.81, -176193.97, -93497.88, 0.00, 0.00, 0.00, 0, -1
18, -180580.67, -180535.91, -180741.20, -168671.17, -178344.25, -146790.27, -179023.31, -94075.09, 0.24, 0.95, 0.04, 0, -1
19, -180542.39, -180499.05, -180718.31, -168247.28, -173172.97, -147044.75, -180633.31, -93831.13, 0.00, 0.00, 0.00, 0, -1
20, -180557.97, -180513.94, -180715.95, -168038.55, -177317.59, -145372.52, -179512.78, -92603.19, 0.00, 0.00, 0.00, 0, -1
21, -180581.25, -180536.11, -180723.33, -168455.02, -180540.05, -144950.98, -176427.50, -92314.09, 0.00, 0.00, 0.00, 0, -1
22, -180559.95, -180515.05, -180715.77, -168568.73, -179130.42, -146091.95, -178517.36, -92925.01, 0.00, 0.00, 0.00, 0, -1
23, -180516.80, -180473.67, -180691.58, -168180.78, -173484.27, -146638.38, -180566.30, -93053.75, 0.00, 0.00, 0.00, 0, -1
24, -180524.34, -180480.81, -180686.25, -167900.23, -176117.88, -145203.47, -179990.97, -91942.04, 0.00, 0.00, 0.00, 0, -1
25, -180551.84, -180506.89, -180695.00, -168273.02, -180340.44, -144540.14, -176885.02, -91461.59, 0.00, 0.00, 0.00, 0, -1
26, -180540.16, -180495.25, -180691.77, -168501.02, -179718.09, -145500.27, -177980.25, -92105.30, 0.00, 0.00, 0.00, 0, -1
27, -180498.58, -180455.73, -180671.02, -168234.42, -174162.27, -146309.84, -180452.25, -92663.49, 0.24, 0.92, -0.02, 0, -1
28, -180494.75, -180451.80, -180659.84, -167877.38, -174939.13, -145130.61, -180283.38, -91890.16, 0.00, 0.00, 0.00, 0, -1
29, -180523.91, -180479.09, -180668.88, -168123.31, -179998.97, -144207.73, -177455.59, -91336.13, 0.00, 0.00, 0.00, 0, -1
30, -180522.05, -180477.05, -180670.19, -168458.78, -180109.33, -144967.27, -177450.47, -92028.95, 0.00, 0.00, 0.00, 0, -1
31, -180483.78, -180440.84, -180653.44, -168362.91, -175079.28, -145966.67, -180266.50, -92969.17, 0.00, 0.00, 0.00, 0, -1
32, -180474.11, -180431.67, -180642.20, -167997.41, -173891.16, -145105.03, -180442.55, -92567.51, 0.00, 0.00, 0.00, 0, -1
33, -180502.64, -180458.08, -180650.30, -168086.39, -179464.42, -143970.08, -178047.78, -91947.18, 0.00, 0.00, 0.00, 0, -1
34, -180507.97, -180462.86, -180653.52, -168489.03, -180346.59, -144485.84, -176963.27, -92624.59, 0.00, 0.00, 0.00, 0, -1
35, -180476.89, -180433.94, -180643.17, -168567.44, -176120.88, -145586.94, -179962.41, -93867.53, 0.00, 0.00, 0.00, 0, -1
36, -180459.86, -180418.11, -180630.20, -168272.23, -173119.95, -145127.92, -180519.92, -93858.84, 0.00, 0.00, 0.00, 0, -1
37, -180481.97, -180437.73, -180632.58, -168230.83, -178736.92, -143988.75, -178583.28, -93105.27, 0.25, 0.93, 0.02, 0, -1
38, -180493.27, -180448.05, -180637.09, -168679.20, -180457.56, -144420.06, -176572.50, -93570.26, 0.00, 0.00, 0.00, 0, -1
39, -180467.69, -180424.34, -180630.08, -168890.52, -177157.78, -145649.34, -179503.56, -94855.39, 0.00, 0.00, 0.00, 0, -1
40, -180444.27, -180402.84, -180615.97, -168698.36, -172640.27, -145627.22, -180541.53, -95179.76, 0.00, 0.00, 0.00, 0, -1
41, -180463.44, -180419.63, -180617.42, -168573.92, -177753.11, -144531.09, -179053.03, -94365.22, 0.00, 0.00, 0.00, 0, -1
42, -180479.75, -180434.42, -180622.83, -169014.19, -180460.36, -144743.25, -176322.83, -94553.33, 0.00, 0.00, 0.00, 0, -1
43, -180459.84, -180416.06, -180618.23, -169320.72, -178114.94, -145890.64, -178881.55, -95762.83, 0.00, 0.00, 0.00, 0, -1
44, -180432.50, -180391.48, -180604.70, -169249.28, -172575.67, -146133.05, -180516.33, -96375.60, 0.00, 0.00, 0.00, 0, -1
45, -180445.20, -180401.91, -180602.67, -169050.08, -176629.89, -145040.70, -179477.66, -95596.10, 0.00, 0.00, 0.00, 0, -1
46, -180464.27, -180418.92, -180607.47, -169428.39, -180358.03, -144948.73, -176301.88, -95530.64, 0.00, 0.00, 0.00, 0, -1
47, -180453.38, -180409.16, -180607.75, -169816.97, -178935.00, -145924.13, -178130.75, -96642.21, 0.27, 0.94, 0.01, 0, -1
48, -180425.02, -180384.06, -180596.64, -169888.25, -172922.41, -146368.63, -180426.30, -97534.59, 0.00, 0.00, 0.00, 0, -1
49, -180430.70, -180388.20, -180591.83, -169641.13, -175381.64, -145367.25, -179814.02, -96830.75, 0.00, 0.00, 0.00, 0, -1
50, -180449.63, -180404.33, -180593.89, -169897.86, -180126.73, -145042.56, -176450.97, -96441.25, 0.00, 0.00, 0.00, 0, -1
51, -180445.50, -180400.88, -180596.48, -170350.69, -179551.11, -145891.19, -177313.19, -97362.52, 0.00, 0.00, 0.00, 0, -1
52, -180420.70, -180379.72, -180590.89, -170579.03, -173610.03, -146542.97, -180242.77, -98479.39, 0.00, 0.00, 0.00, 0, -1
53, -180421.11, -180379.39, -180585.70, -170349.81, -174110.11, -145696.20, -180084.16, -97964.66, 0.00, 0.00, 0.00, 0, -1
54, -180439.88, -180394.84, -180586.22, -170441.33, -179715.38, -145119.19, -176802.42, -97259.12, 0.00, 0.00, 0.00, 0, -1
55, -180439.91, -180394.83, -180588.03, -170908.61, -179971.92, -145815.41, -176532.66, -97925.23, 0.00, 0.00, 0.00, 0, -1
56, -180416.06, -180374.39, -180583.81, -171237.27, -174536.11, -146606.52, -179917.50, -99141.20, 0.28, 0.93, -0.03, 0, -1
57, -180411.81, -180370.69, -180579.31, -171107.45, -173013.58, -146013.81, -180271.03, -98921.53, 0.00, 0.00, 0.00, 0, -1
58, -180432.48, -180387.78, -180581.39, -171090.80, -179110.58, -145252.34, -177281.83, -98016.95, 0.00, 0.00, 0.00, 0, -1
59, -180434.05, -180388.55, -180580.14, -171519.86, -180243.59, -145712.42, -175833.25, -98386.19, 0.00, 0.00, 0.00, 0, -1
60, -180413.97, -180371.73, -180578.70, -171937.14, -175682.67, -146600.86, -179384.34, -99658.55, 0.00, 0.00, 0.00, 0, -1
61, -180407.63, -180367.11, -180577.44, -171927.20, -172240.77, -146301.27, -180383.41, -99786.61, 0.00, 0.00, 0.00, 0, -1
62, -180421.23, -180377.14, -180573.28, -171771.27, -178273.06, -145387.08, -177786.44, -98741.06, 0.00, 0.00, 0.00, 0, -1
63, -180427.28, -180381.81, -180572.41, -172144.95, -180365.19, -145647.83, -175316.84, -98829.91, 0.00, 0.00, 0.00, 0, -1
64, -180415.30, -180372.41, -180576.97, -172637.42, -176802.88, -146609.80, -178678.03, -100117.75, 0.00, 0.00, 0.00, 0, -1
65, -180404.09, -180364.00, -180575.84, -172797.28, -171787.17, -146646.19, -180428.19, -100636.54, 0.00, 0.00, 0.00, 0, -1
66, -180414.38, -180370.91, -180570.14, -172562.08, -177107.08, -145620.97, -178353.06, -99509.27, 0.29, 0.95, 0.01, 0, -1
67, -180421.16, -180375.36, -180565.95, -172841.45, -180353.63, -145602.30, -175036.27, -99198.47, 0.00, 0.00, 0.00, 0, -1
68, -180412.17, -180368.45, -180569.70, -173411.73, -177831.13, -146590.31, -177827.97, -100331.73, 0.00, 0.00, 0.00, 0, -1
69, -180404.86, -180364.64, -180573.44, -173735.92, -171817.16, -147001.88, -180374.86, -101149.87, 0.00, 0.00, 0.00, 0, -1
70, -180411.11, -180368.20, -180569.83, -173440.05, -175904.92, -145993.03, -178856.89, -99999.94, 0.00, 0.00, 0.00, 0, -1
71, -180417.84, -180372.02, -180562.55, -173583.48, -180228.45, -145699.58, -174972.89, -99234.19, 0.00, 0.00, 0.00, 0, -1
72, -180415.92, -180371.52, -180569.48, -174062.22, -178773.98, -146671.41, -176797.64, -100102.04, 0.00, 0.00, 0.00, 0, -1
73, -180409.58, -180369.41, -180582.22, -174379.67, -172341.94, -147526.66, -180183.44, -101218.89, 0.00, 0.00, 0.00, 0, -1
74, -180415.42, -180373.36, -180577.92, -173966.55, -174670.86, -146709.48, -179324.59, -100254.73, 0.00, 0.00, 0.00, 0, -1
75, -180422.98, -180377.20, -180566.86, -173864.84, -179969.44, -146168.73, -175168.17, -99136.06, 0.00, 0.00, 0.00, 0, -1
76, -180420.56, -180375.36, -180571.83, -174245.45, -179476.70, -147076.75, -175850.22, -99742.60, 0.28, 0.95, 0.03, 0, -1
77, -180417.89, -180377.25, -180589.61, -174741.48, -173221.36, -148265.55, -179837.38, -101094.43, 0.00, 0.00, 0.00, 0, -1
78, -180419.67, -180378.30, -180585.55, -174402.77, -173451.08, -147678.69, -179747.63, -100450.77, 0.00, 0.00, 0.00, 0, -1
79, -180424.39, -180378.70, -180570.14, -173984.92, -179510.98, -146790.19, -175600.86, -99013.89, 0.00, 0.00, 0.00, 0, -1
80, -180423.63, -180377.81, -180573.25, -174260.63, -179949.98, -147448.84, -175069.09, -99299.30, 0.00, 0.00, 0.00, 0, -1
81, -180422.47, -180381.39, -180591.94, -174879.42, -174344.20, -148858.98, -179340.83, -100822.84, 0.00, 0.00, 0.00, 0, -1
82, -180424.64, -180384.22, -180595.52, -174733.53, -172430.58, -148655.77, -180084.80, -100671.47, 0.00, 0.00, 0.00, 0, -1
83, -180429.69, -180384.31, -180581.34, -174125.48, -178836.08, -147525.70, -176303.69, -99083.55, 0.00, 0.00, 0.00, 0, -1
84, -180432.14, -180385.48, -180580.45, -174285.17, -180244.33, -147911.77, -174538.38, -99066.77, 0.00, 0.00, 0.00, 0, -1
85, -180430.63, -180388.55, -180596.86, -174966.66, -175598.67, -149465.31, -178680.33, -100669.57, 0.00, 0.00, 0.00, 0, -1
86, -180431.28, -180391.83, -180604.59, -175055.22, -171746.64, -149750.17, -180279.69, -101088.20, 0.29, 0.91, -0.01, 0, -1
87, -180434.83, -180389.80, -180589.84, -174374.73, -177960.20, -148541.48, -177081.72, -99514.52, 0.00, 0.00, 0.00, 0, -1
88, -180437.11, -180389.80, -180584.66, -174409.78, -180377.88, -148623.53, -174272.86, -99192.16, 0.00, 0.00, 0.00, 0, -1
89, -180438.05, -180395.16, -180601.11, -175084.94, -176843.23, -150121.84, -177901.91, -100778.02, 0.00, 0.00, 0.00, 0, -1
90, -180439.64, -180401.30, -180614.81, -175409.44, -171430.31, -150817.16, -180353.69, -101764.96, 0.00, 0.00, 0.00, 0, -1
91, -180443.14, -180399.02, -180602.00, -174754.67, -176825.73, -149627.58, -177916.89, -100368.09, 0.00, 0.00, 0.00, 0, -1
92, -180448.63, -180400.81, -180596.23, -174657.02, -180375.20, -149421.52, -174336.88, -99765.09, 0.00, 0.00, 0.00, 0, -1
93, -180449.03, -180404.95, -180608.80, -175283.98, -177955.59, -150885.63, -177123.64, -101269.89, 0.00, 0.00, 0.00, 0, -1
94, -180446.61, -180409.23, -180622.86, -175783.41, -171565.22, -152008.70, -180286.69, -102800.45, 0.00, 0.00, 0.00, 0, -1
95, -180450.34, -180407.56, -180613.31, -175244.55, -175560.19, -151035.38, -178659.16, -101766.28, 0.29, 0.89, -0.04, 0, -1
96, -180456.16, -180407.66, -180604.28, -175047.02, -180239.00, -150563.45, -174631.84, -100899.73, 0.00, 0.00, 0.00, 0, -1
97, -180457.34, -180411.56, -180613.95, -175598.22, -178932.69, -151832.95, -176289.80, -102141.32, 0.00, 0.00, 0.00, 0, -1
98, -180450.23, -180413.94, -180627.28, -176230.61, -172189.19, -153241.70, -180054.61, -103983.82, 0.00, 0.00, 0.00, 0, -1
99, -180452.44, -180411.63, -180620.22, -175851.09, -174314.00, -152545.84, -179236.86, -103298.05, 0.00, 0.00, 0.00, 0, -1
100, -180462.38, -180413.38, -180612.02, -175578.25, -179977.73, -151843.52, -175093.33, -102134.59, 0.00, 0.00, 0.00, 0, -1
101, -180463.63, -180416.09, -180617.63, -176044.86, -179640.36, -152863.22, -175556.83, -103045.18, 0.00, 0.00, 0.00, 0, -1
102, -180450.67, -180416.22, -180628.64, -176717.56, -173189.80, -154437.27, -179646.66, -105041.44, 0.00, 0.00, 0.00, 0, -1
103, -180450.92, -180414.30, -180625.09, -176520.27, -173010.78, -154120.86, -179729.41, -104817.54, 0.00, 0.00, 0.00, 0, -1
104, -180465.44, -180416.56, -180617.36, -176169.81, -179476.17, -153235.38, -175641.44, -103428.96, 0.00, 0.00, 0.00, 0, -1
105, -180466.14, -180417.00, -180618.25, -176555.89, -180080.06, -153999.05, -174964.98, -103942.23, 0.30, 0.89, -0.05, 0, -1
106, -180271.11, -180412.91, -180625.69, -177215.27, -174390.00, -155657.45, -179124.97, -105915.01, 0.00, 0.00, 0.00, 0, -1
107, -180156.22, -180410.20, -180624.89, -177177.64, -171949.59, -155754.08, -180052.50, -106149.77, 0.00, 0.00, 0.00, 0, -1
108, -180455.39, -180415.19, -180618.88, -176799.30, -178772.38, -154844.86, -176330.98, -104659.76, 0.00, 0.00, 0.00, 0, -1
109, -180470.08, -180418.61, -180620.69, -177111.84, -180351.86, -155388.20, -174512.22, -104737.66, 0.00, 0.00, 0.00, 0, -1
110, -180021.33, -180409.39, -180621.45, -177735.64, -175759.73, -157033.88, -178375.45, -106589.14, 0.00, 0.00, 0.00, 0, -1
111, -179392.23, -179212.73, -180617.27, -177861.63, -171221.80, -157551.41, -180286.42, -107353.73, 0.00, 0.00, 0.00, 0, -1
112, -180316.55, -148342.63, -180561.59, -178570.45, -177854.55, -157668.47, -179772.59, -106326.80, 0.00, 0.00, 0.00, 0, -1
113, -180342.42, -104374.28, -180487.11, -179762.16, -180318.63, -158708.83, -180297.20, -106242.62, 0.00, 0.00, 0.00, 0, -1
114, -178595.08, -146723.70, -180553.36, -178174.84, -176398.11, -158208.64, -179706.45, -107145.07, 0.00, 0.00, 0.00, 0, -1
115, -174021.94, -178572.02, -180657.75, -176715.14, -169432.98, -157509.39, -177875.09, -108078.23, 0.29, 0.82, -0.19, 0, -1
116, -179114.22, -151175.22, -180577.97, -178616.30, -176354.56, -158755.09, -178906.28, -107839.85, 0.00, 0.00, 0.00, 0, -1
117, -180327.25, -99576.98, -180472.42, -180101.70, -180293.14, -159893.25, -180265.41, -107494.30, 0.00, 0.00, 0.00, 0, -1
118, -179147.27, -135747.25, -180516.39, -178828.52, -177607.27, -159277.72, -179439.13, -107960.95, 0.00, 0.00, 0.00, 0, -1
119, -173429.06, -177578.88, -180631.38, -176899.36, -169427.61, -158226.73, -177095.13, -108729.38, 0.00, 0.00, 0.00, 0, -1
120, -178077.45, -159283.48, -180580.31, -178390.97, -174630.42, -159228.28, -177964.22, -108422.36, 0.00, 0.00, 0.00, 0, -1
121, -180315.89, -101954.77, -180465.36, -180092.27, -180129.81, -160557.72, -179953.11, -107729.41, 0.00, 0.00, 0.00, 0, -1
122, -179659.89, -124267.70, -180482.31, -179255.44, -178591.61, -160147.52, -179286.63, -107797.81, 0.00, 0.00, 0.00, 0, -1
123, -173672.88, -174998.64, -180600.19, -177035.72, -169995.19, -158881.36, -176515.31, -108413.02, 0.00, 0.00, 0.00, 0, -1
124, -176727.91, -166256.22, -180577.33, -177933.11, -172705.78, -159491.47, -176819.84, -108249.54, 0.00, 0.00, 0.00, 0, -1
125, -180266.05, -106841.58, -180451.11, -179924.19, -179767.61, -160968.86, -179235.25, -107526.44, 0.32, 0.87, -0.12, 0, -1
126, -179974.98, -110837.98, -180436.33, -179513.36, -179320.47, -160842.80, -179061.19, -107458.45, 0.00, 0.00, 0.00, 0, -1
127, -174412.89, -169505.09, -180548.72, -177156.88, -171065.73, -159477.02, -176087.53, -108122.63, 0.00, 0.00, 0.00, 0, -1
128, -175185.17, -170978.86, -180558.86, -177410.38, -170856.14, -159686.47, -175679.81, -108286.87, 0.00, 0.00, 0.00, 0, -1
129, -180118.06, -112846.47, -180431.80, -179620.94, -179175.27, -161265.19, -178263.03, -107779.20, 0.00, 0.00, 0.00, 0, -1
130, -180134.09, -98617.97, -180389.20, -179702.66, -179783.50, -161495.84, -178673.67, -107771.68, 0.00, 0.00, 0.00, 0, -1
131, -175563.72, -161125.81, -180493.73, -177470.52, -172565.23, -160264.34, -175882.34, -108595.32, 0.00, 0.00, 0.00, 0, -1
132, -173828.64, -174645.59, -180545.78, -177196.83, -169387.70, -160212.67, -174842.69, -109231.85, 0.00, 0.00, 0.00, 0, -1
133, -179830.80, -122248.70, -180432.03, -179457.08, -178319.80, -161897.95, -177540.61, -109037.98, 0.00, 0.00, 0.00, 0, -1
134, -180210.75, -91685.34, -180375.16, -180042.20, -180086.02, -162509.97, -178659.41, -109130.17, 0.40, 0.98, 0.02, 0, -1
135, -176971.98, -151417.27, -180471.17, -178372.14, -174477.02, -161477.84, -176304.31, -110046.58, 0.00, 0.00, 0.00, 0, -1
136, -173066.80, -177304.00, -180556.48, -177552.58, -168738.31, -161077.64, -174693.14, -110973.08, 0.00, 0.00, 0.00, 0, -1
137, -179387.00, -135443.52, -180459.73, -179507.39, -177251.98, -162638.34, -177213.44, -110915.07, 0.00, 0.00, 0.00, 0, -1
138, -180236.69, -91088.59, -180380.38, -180200.86, -180217.14, -163476.83, -178910.36, -110869.16, 0.00, 0.00, 0.00, 0, -1
139, -178216.91, -142318.52, -180453.03, -179145.11, -176310.59, -162611.78, -177014.67, -111654.85, 0.00, 0.00, 0.00, 0, -1
140, -172845.50, -178186.30, -180561.72, -177853.72, -168793.08, -161876.89, -174810.34, -112621.36, 0.00, 0.00, 0.00, 0, -1
141, -178698.06, -149100.30, -180486.34, -179391.67, -175860.53, -163138.38, -176740.83, -112511.19, 0.00, 0.00, 0.00, 0, -1
142, -180238.00, -95049.36, -180382.17, -180217.58, -180189.03, -164180.86, -178849.44, -112164.76, 0.00, 0.00, 0.00, 0, -1
143, -179095.38, -132650.27, -180429.36, -179465.81, -177747.25, -163557.45, -177554.97, -112689.84, 0.00, 0.00, 0.00, 0, -1
144, -173045.88, -177188.28, -180552.48, -177831.64, -169397.31, -162637.48, -175037.64, -113731.75, 0.41, 0.95, 0.03, 0, -1
145, -177687.36, -159570.84, -180505.50, -178993.59, -174407.86, -163575.36, -176378.44, -113771.42, 0.00, 0.00, 0.00, 0, -1
146, -180232.88, -101396.52, -180385.33, -180163.23, -180048.86, -164813.28, -178821.34, -113296.20, 0.00, 0.00, 0.00, 0, -1
147, -179642.44, -121621.09, -180399.27, -179540.77, -178839.45, -164549.09, -178190.72, -113662.66, 0.00, 0.00, 0.00, 0, -1
148, -173642.67, -174238.69, -180528.97, -177569.67, -170599.75, -163583.41, -175516.42, -114844.17, 0.00, 0.00, 0.00, 0, -1
149, -176373.98, -167380.30, -180518.53, -178242.84, -172916.11, -164316.25, -176132.17, -115156.74, 0.00, 0.00, 0.00, 0, -1
150, -180187.27, -109698.91, -180387.59, -179921.34, -179763.77, -165662.58, -178735.20, -114674.75, 0.00, 0.00, 0.00, 0, -1
151, -179962.14, -112309.24, -180373.08, -179448.84, -179522.08, -165610.33, -178684.23, -114936.42, 0.00, 0.00, 0.00, 0, -1
152, -174585.98, -169804.23, -180501.53, -177197.30, -172105.34, -164616.77, -176042.17, -116162.39, 0.00, 0.00, 0.00, 0, -1
153, -174923.14, -173429.44, -180525.80, -177292.94, -171383.88, -164934.81, -175873.48, -116707.66, 0.00, 0.00, 0.00, 0, -1
154, -180042.45, -120745.88, -180390.13, -179270.91, -179188.75, -166244.09, -178485.58, -116086.44, 0.36, 0.86, -0.03, 0, -1
155, -180121.13, -105105.77, -180346.61, -179207.75, -179921.30, -166386.06, -179029.89, -116002.63, 0.00, 0.00, 0.00, 0, -1
156, -175841.66, -163581.80, -180465.67, -176947.00, -173791.16, -165382.98, -176598.95, -116984.34, 0.00, 0.00, 0.00, 0, -1
157, -173638.67, -176773.50, -180526.66, -176489.50, -170339.69, -165353.59, -175721.83, -117565.73, 0.00, 0.00, 0.00, 0, -1
158, -179728.63, -132561.31, -180398.83, -178458.22, -178446.13, -166648.55, -178173.14, -116824.56, 0.00, 0.00, 0.00, 0, -1
159, -180170.50, -100683.01, -180324.50, -178850.36, -180125.64, -167062.50, -179238.66, -116426.63, 0.00, 0.00, 0.00, 0, -1
160, -177138.44, -154811.02, -180422.97, -176794.25, -175503.92, -166242.55, -177156.50, -117334.90, 0.00, 0.00, 0.00, 0, -1
161, -172760.92, -178485.20, -180520.77, -175804.31, -169774.22, -165932.39, -175614.81, -118378.12, 0.00, 0.00, 0.00, 0, -1
162, -179187.02, -144595.31, -180410.25, -177641.27, -177397.92, -167116.23, -177730.50, -117957.15, 0.00, 0.00, 0.00, 0, -1
163, -180170.61, -100656.52, -180309.89, -178497.92, -180183.38, -167722.98, -179233.00, -117549.70, 0.00, 0.00, 0.00, 0, -1
164, -178273.75, -145950.47, -180383.64, -176787.86, -176985.00, -167058.77, -177584.84, -118395.48, 0.31, 0.86, -0.04, 0, -1
165, -172442.11, -178775.39, -180503.47, -175364.98, -169715.05, -166549.66, -175508.33, -119663.28, 0.00, 0.00, 0.00, 0, -1
166, -178358.83, -156455.95, -180424.75, -176942.69, -175985.94, -167614.66, -177095.59, -119548.13, 0.00, 0.00, 0.00, 0, -1
167, -180166.50, -105349.73, -180306.95, -178245.20, -180130.17, -168478.30, -178967.58, -119076.68, 0.00, 0.00, 0.00, 0, -1
168, -179117.95, -137167.59, -180347.19, -176957.33, -178179.03, -168058.27, -177841.67, -119634.24, 0.00, 0.00, 0.00, 0, -1
169, -172780.36, -177668.64, -180478.64, -175190.75, -170249.34, -167364.06, -175414.27, -120864.41, 0.00, 0.00, 0.00, 0, -1
170, -177223.88, -165502.84, -180435.72, -176352.23, -174452.72, -168173.58, -176335.50, -120868.17, 0.00, 0.00, 0.00, 0, -1
171, -180149.33, -112970.34, -180304.19, -177986.69, -179963.08, -169233.19, -178482.83, -120194.06, 0.00, 0.00, 0.00, 0, -1
172, -179656.19, -127627.25, -180315.25, -177133.59, -179065.27, -169034.92, -177945.63, -120477.77, 0.00, 0.00, 0.00, 0, -1
173, -173699.16, -174902.14, -180448.00, -175098.47, -171340.98, -168195.66, -175350.97, -121667.29, 0.36, 0.92, 0.03, 0, -1
174, -175931.27, -172375.34, -180444.17, -175679.03, -172897.38, -168652.16, -175486.00, -121827.17, 0.00, 0.00, 0.00, 0, -1
175, -180087.17, -123858.19, -180308.44, -177515.52, -179650.39, -169784.00, -177771.55, -121019.38, 0.00, 0.00, 0.00, 0, -1
176, -179948.64, -120212.41, -180283.94, -177142.03, -179621.20, -169825.22, -177958.02, -120992.83, 0.00, 0.00, 0.00, 0, -1
177, -174943.91, -170780.78, -180407.00, -174993.59, -172773.41, -168925.89, -175547.59, -121929.03, 0.00, 0.00, 0.00, 0, -1
178, -174569.00, -176783.72, -180446.91, -174881.47, -171292.77, -168988.09, -174799.20, -122164.39, 0.00, 0.00, 0.00, 0, -1
179, -179911.64, -136305.00, -180320.88, -176801.98, -178995.22, -170152.98, -177034.86, -121312.41, 0.00, 0.00, 0.00, 0, -1
180, -180080.11, -116859.21, -180267.73, -176901.25, -179934.38, -170451.58, -177833.31, -121051.79, 0.00, 0.00, 0.00, 0, -1
181, -176459.17, -166237.50, -180370.13, -174905.61, -174388.23, -169674.08, -175983.69, -121878.88, 0.00, 0.00, 0.00, 0, -1
182, -173600.66, -179002.73, -180438.56, -174229.88, -170266.91, -169352.34, -174586.25, -122257.20, 0.00, 0.00, 0.00, 0, -1
183, -179558.31, -148776.88, -180330.61, -176008.72, -178104.44, -170353.95, -176285.09, -121389.57, 0.39, 0.90, -0.07, 0, -1
184, -180103.63, -112737.26, -180248.59, -176675.09, -180094.09, -170966.75, -177818.69, -120945.91, 0.00, 0.00, 0.00, 0, -1
185, -177808.86, -155222.44, -180319.58, -174984.14, -176091.94, -170394.36, -176767.17, -121624.73, 0.00, 0.00, 0.00, 0, -1
186, -173119.27, -179340.64, -180420.45, -173704.09, -169890.03, -169696.42, -174732.34, -122119.02, 0.00, 0.00, 0.00, 0, -1
187, -178931.67, -158995.80, -180345.95, -175193.08, -176994.56, -170412.05, -175538.81, -121299.38, 0.00, 0.00, 0.00, 0, -1
188, -180101.92, -115997.80, -180243.33, -176332.61, -180120.70, -171266.23, -177419.02, -120749.82, 0.00, 0.00, 0.00, 0, -1
189, -178515.98, -148023.95, -180291.17, -174910.44, -177392.69, -170821.38, -176691.52, -121249.47, 0.00, 0.00, 0.00, 0, -1
190, -172537.95, -178738.22, -180405.58, -173379.25, -170015.94, -170069.34, -174654.80, -121987.84, 0.00, 0.00, 0.00, 0, -1
191, -178043.89, -161325.30, -180341.67, -174835.83, -175707.73, -170879.80, -175851.38, -121480.74, 0.00, 0.00, 0.00, 0, -1
192, -180084.78, -112209.44, -180225.89, -176160.84, -180035.41, -171805.58, -177781.25, -120746.87, 0.00, 0.00, 0.00, 0, -1
193, -179151.44, -138369.00, -180259.86, -174872.78, -178414.84, -171348.52, -176886.64, -120970.07, 0.37, 0.91, -0.08, 0, -1
